Fp1,Fp2,F3,F4,C3,C4,P3,P4,O1,O2,F7,F8,T7,T8,P7,P8,Fz,Cz,Pz,AFz,Cpz,POz,TimeStamp,Event,EventFile,EventTime
152813.0781,162206.2969,152439.8750,158967.5938,187500.0000,187500.0000,187500.0000,187500.0000,150393.2344,150216.9219,158514.1563,155041.1719,187500.0000,171531.2188,187500.0000,175238.9219,158535.4688,157864.8281,137206.9219,187500.0000,187500.0000,187500.0000,28.287109,NaN,NaN,NaN
153123.3750,164093.5625,152236.1094,159696.0938,187500.0000,187500.0000,187500.0000,187500.0000,150122.5313,150032.3750,158178.0625,155223.1406,187500.0000,171525.0000,187500.0000,175273.5469,158825.3281,158070.1875,137169.5938,187500.0000,187500.0000,187500.0000,28.291107,NaN,NaN,NaN
153515.5469,166594.6719,151968.2031,160743.9219,187500.0000,187500.0000,187500.0000,187500.0000,149769.0469,149833.6563,157734.4375,155493.4844,187500.0000,171535.1250,187500.0000,175397.7969,159190.2344,158335.4531,137193.9219,187500.0000,187500.0000,187500.0000,28.295105,NaN,NaN,NaN
153043.7969,163838.7969,152229.0156,159623.5000,187500.0000,187500.0000,187500.0000,187500.0000,150131.7188,150050.2969,158188.5938,155202.7344,187500.0000,171533.5781,187500.0000,175309.6719,158766.0156,158028.5000,137204.5469,187500.0000,187500.0000,187500.0000,28.299103,NaN,NaN,NaN
152755.6406,162108.0156,152394.1719,158888.3125,187500.0000,187500.0000,187500.0000,187500.0000,150360.4688,150185.5156,158476.8281,155015.1094,187500.0000,171532.4844,187500.0000,175230.9375,158499.9219,157830.3125,137170.2188,187500.0000,187500.0000,187500.0000,28.303101,NaN,NaN,NaN
153064.6094,163978.2656,152194.9063,159611.5469,187500.0000,187500.0000,187500.0000,187500.0000,150093.7188,150015.7188,158146.8125,155196.7813,187500.0000,171526.9688,187500.0000,175267.9375,158782.0469,158029.0625,137128.3125,187500.0000,187500.0000,187500.0000,28.307098,NaN,NaN,NaN
153481.9531,166599.6094,151911.7500,160676.5000,187500.0000,187500.0000,187500.0000,187500.0000,149717.6406,149777.7813,157679.2188,155462.5000,187500.0000,171521.9844,187500.0000,175355.5781,159171.6406,158308.7969,137119.4063,187500.0000,187500.0000,187500.0000,28.311096,NaN,NaN,NaN
152988.0938,163764.2031,152178.8906,159552.3594,187500.0000,187500.0000,187500.0000,187500.0000,150092.5781,150028.0313,158146.0938,155173.9844,187500.0000,171531.3750,187500.0000,175301.6250,158725.2500,157989.3438,137159.2656,187500.0000,187500.0000,187500.0000,28.315094,NaN,NaN,NaN
152691.8906,162006.6875,152341.3438,158802.9688,187500.0000,187500.0000,187500.0000,187500.0000,150319.8750,150151.6094,158433.2500,154978.9688,187500.0000,171527.1875,187500.0000,175216.7500,158458.0156,157791.2656,137127.2344,187500.0000,187500.0000,187500.0000,28.319092,NaN,NaN,NaN
153000.9531,163859.4219,152147.2969,159520.3906,187500.0000,187500.0000,187500.0000,187500.0000,150060.0781,149985.2031,158110.0469,155161.6094,187500.0000,171525.2031,187500.0000,175256.2969,158740.0781,157990.6406,137088.2656,187500.0000,187500.0000,187500.0000,28.323090,NaN,NaN,NaN
153428.4531,166498.5000,151872.2031,160597.6406,187500.0000,187500.0000,187500.0000,187500.0000,149689.9844,149764.3438,157650.0625,155436.7344,187500.0000,171526.7031,187500.0000,175352.6875,159132.5000,158272.4531,137080.4688,187500.0000,187500.0000,187500.0000,28.327087,NaN,NaN,NaN
153397.1719,166422.1719,151864.7500,160587.7500,187500.0000,187500.0000,187500.0000,187500.0000,149689.5313,149763.7031,157647.1406,155430.2656,187500.0000,171528.7969,187500.0000,175373.7031,159114.8281,158263.1563,137111.0469,187500.0000,187500.0000,187500.0000,28.331085,NaN,NaN,NaN
152935.4063,163692.5625,152130.5000,159483.0625,187500.0000,187500.0000,187500.0000,187500.0000,150056.2813,149994.1406,158105.1406,155148.4531,187500.0000,171532.0156,187500.0000,175293.7969,158693.1406,157957.8125,137121.7344,187500.0000,187500.0000,187500.0000,28.335083,NaN,NaN,NaN
152640.8125,161918.0000,152301.3594,158731.6250,187500.0000,187500.0000,187500.0000,187500.0000,150291.5781,150135.0469,158402.2969,154957.9063,187500.0000,171531.6875,187500.0000,175214.5625,158421.0625,157755.4844,137088.5625,187500.0000,187500.0000,187500.0000,28.339081,NaN,NaN,NaN
152936.7500,163739.5469,152100.0625,159430.9375,187500.0000,187500.0000,187500.0000,187500.0000,150025.7031,149952.1563,158073.0000,155129.2344,187500.0000,171522.2813,187500.0000,175243.2188,158698.2500,157950.8125,137047.8125,187500.0000,187500.0000,187500.0000,28.343079,NaN,NaN,NaN
153365.8906,166389.3750,151823.8125,160512.6094,187500.0000,187500.0000,187500.0000,187500.0000,149655.8594,149730.3750,157611.1719,155405.5000,187500.0000,171524.9531,187500.0000,175341.1875,159091.9844,158233.6094,137039.7188,187500.0000,187500.0000,187500.0000,28.347076,NaN,NaN,NaN
153342.7969,166339.8438,151819.4063,160517.0156,187500.0000,187500.0000,187500.0000,187500.0000,149656.1719,149744.1875,157609.1563,155405.2188,187500.0000,171530.5469,187500.0000,175368.8281,159075.0156,158224.4375,137068.2969,187500.0000,187500.0000,187500.0000,28.351074,NaN,NaN,NaN
152876.2188,163613.5625,152078.0625,159409.6875,187500.0000,187500.0000,187500.0000,187500.0000,150015.6094,149959.8750,158059.2188,155117.6094,187500.0000,171529.6875,187500.0000,175282.6719,158656.0938,157922.2031,137081.1406,187500.0000,187500.0000,187500.0000,28.355072,NaN,NaN,NaN
152578.0156,161818.3281,152250.5781,158649.2500,187500.0000,187500.0000,187500.0000,187500.0000,150254.3438,150102.0781,158359.6406,154923.7969,187500.0000,171529.3750,187500.0000,175203.1563,158380.7969,157717.9063,137048.3125,187500.0000,187500.0000,187500.0000,28.359070,NaN,NaN,NaN
152879.1719,163624.0156,152061.2344,159347.1406,187500.0000,187500.0000,187500.0000,187500.0000,149999.7344,149941.2344,158044.6250,155100.9688,187500.0000,171526.7031,187500.0000,175240.3281,158656.0000,157912.6094,137009.3906,187500.0000,187500.0000,187500.0000,28.363068,NaN,NaN,NaN
153303.0938,166274.5781,151777.0313,160423.9375,187500.0000,187500.0000,187500.0000,187500.0000,149621.8125,149702.7969,157574.3438,155370.9531,187500.0000,171523.5313,187500.0000,175329.9531,159051.2813,158196.5469,137001.0156,187500.0000,187500.0000,187500.0000,28.367065,NaN,NaN,NaN
153284.8594,166253.5000,151769.5469,160439.9844,187500.0000,187500.0000,187500.0000,187500.0000,149618.9063,149712.7813,157567.6094,155374.1875,187500.0000,171529.3750,187500.0000,175358.8594,159038.5625,158190.2344,137029.2188,187500.0000,187500.0000,187500.0000,28.371063,NaN,NaN,NaN
152824.8594,163539.3281,152033.5000,159341.9844,187500.0000,187500.0000,187500.0000,187500.0000,149982.4531,149943.2969,158022.8750,155094.1250,187500.0000,171532.6250,187500.0000,175279.8438,158618.6094,157886.4063,137040.5000,187500.0000,187500.0000,187500.0000,28.375061,NaN,NaN,NaN
152511.3750,161705.5469,152198.3125,158560.0000,187500.0000,187500.0000,187500.0000,187500.0000,150214.8281,150067.1719,158317.1094,154888.2813,187500.0000,171523.3906,187500.0000,175187.9844,158335.5313,157675.1406,137004.4375,187500.0000,187500.0000,187500.0000,28.379059,NaN,NaN,NaN
152808.5625,163490.4219,152010.5000,159249.8281,187500.0000,187500.0000,187500.0000,187500.0000,149964.0625,149905.2344,158004.7656,155064.1719,187500.0000,171520.5313,187500.0000,175224.2344,158607.0625,157866.3594,136964.3594,187500.0000,187500.0000,187500.0000,28.383057,NaN,NaN,NaN
153241.6250,166160.2656,151733.2188,160340.0469,187500.0000,187500.0000,187500.0000,187500.0000,149591.6875,149683.2188,157540.5156,155344.0781,187500.0000,171523.2344,187500.0000,175322.5781,159004.4688,158151.7500,136956.1250,187500.0000,187500.0000,187500.0000,28.387054,NaN,NaN,NaN
153241.6250,166160.2656,151733.2188,160340.0469,187500.0000,187500.0000,187500.0000,187500.0000,149591.6875,149683.2188,157540.5156,155344.0781,187500.0000,171523.2344,187500.0000,175322.5781,159004.4688,158151.7500,136956.1250,187500.0000,187500.0000,187500.0000,28.391052,NaN,NaN,NaN
153219.3281,166152.8281,151716.4844,160357.9531,187500.0000,187500.0000,187500.0000,187500.0000,149580.1719,149675.9063,157523.0000,155343.3438,187500.0000,171524.3750,187500.0000,175345.0000,158995.2813,158148.0469,136985.0313,187500.0000,187500.0000,187500.0000,28.395050,NaN,NaN,NaN
152759.7969,163447.1406,151978.9531,159263.8125,187500.0000,187500.0000,187500.0000,187500.0000,149942.9688,149905.4375,157975.5469,155063.2344,187500.0000,171528.0781,187500.0000,175267.0156,158576.4844,157845.2813,136996.8281,187500.0000,187500.0000,187500.0000,28.399048,NaN,NaN,NaN
152450.6719,161599.4219,152154.7969,158481.8125,187500.0000,187500.0000,187500.0000,187500.0000,150185.9063,150051.9063,158282.4375,154862.5781,187500.0000,171526.3906,187500.0000,175184.6719,158291.3906,157633.5781,136963.1250,187500.0000,187500.0000,187500.0000,28.403046,NaN,NaN,NaN
152450.6719,161599.4219,152154.7969,158481.8125,187500.0000,187500.0000,187500.0000,187500.0000,150185.9063,150051.9063,158282.4375,154862.5781,187500.0000,171526.3906,187500.0000,175184.6719,158291.3906,157633.5781,136963.1250,187500.0000,187500.0000,187500.0000,28.407043,NaN,NaN,NaN
152735.9688,163350.9844,151961.6563,159152.1563,187500.0000,187500.0000,187500.0000,187500.0000,149930.7969,149876.5156,157966.3438,155026.6250,187500.0000,171517.8281,187500.0000,175211.4531,158558.3125,157822.0469,136922.7344,187500.0000,187500.0000,187500.0000,28.411041,NaN,NaN,NaN
153172.2344,166031.9063,151684.4531,160246.2031,187500.0000,187500.0000,187500.0000,187500.0000,149558.4375,149654.1563,157501.5469,155307.0938,187500.0000,171521.8750,187500.0000,175311.0313,158958.7656,158110.3750,136915.7656,187500.0000,187500.0000,187500.0000,28.415039,NaN,NaN,NaN
153160.6094,166057.8750,151671.0938,160280.5313,187500.0000,187500.0000,187500.0000,187500.0000,149547.8750,149661.3281,157486.3438,155314.5313,187500.0000,171527.0781,187500.0000,175340.9063,158952.5938,158108.7188,136943.2813,187500.0000,187500.0000,187500.0000,28.419037,NaN,NaN,NaN
152696.3594,163355.1719,151925.2656,159182.5938,187500.0000,187500.0000,187500.0000,187500.0000,149902.3906,149873.2656,157930.2031,155028.3125,187500.0000,171524.6875,187500.0000,175254.9219,158535.4219,157807.0938,136955.1875,187500.0000,187500.0000,187500.0000,28.423035,NaN,NaN,NaN
152386.3438,161488.5313,152105.4688,158394.2969,187500.0000,187500.0000,187500.0000,187500.0000,150151.3281,150021.6250,158243.3438,154828.5625,187500.0000,171525.1875,187500.0000,175174.1094,158249.1563,157594.8594,136923.4219,187500.0000,187500.0000,187500.0000,28.427032,NaN,NaN,NaN
152676.9219,163227.8281,151923.3281,159065.4844,187500.0000,187500.0000,187500.0000,187500.0000,149907.1719,149866.2969,157940.5781,155000.5313,187500.0000,171523.6406,187500.0000,175209.7031,158514.2344,157781.6719,136883.8281,187500.0000,187500.0000,187500.0000,28.431030,NaN,NaN,NaN
153105.8906,165908.1719,151636.2344,160154.1719,187500.0000,187500.0000,187500.0000,187500.0000,149525.0781,149624.0938,157465.1719,155274.4375,187500.0000,171520.2188,187500.0000,175299.3906,158914.2344,158068.6406,136874.2969,187500.0000,187500.0000,187500.0000,28.435028,NaN,NaN,NaN
153099.0000,165959.7813,151620.9063,160200.1563,187500.0000,187500.0000,187500.0000,187500.0000,149512.1250,149626.7969,157445.2344,155285.3594,187500.0000,171525.5625,187500.0000,175330.0781,158912.1875,158069.6563,136901.8594,187500.0000,187500.0000,187500.0000,28.439026,NaN,NaN,NaN
152643.2813,163275.6875,151881.5938,159115.6094,187500.0000,187500.0000,187500.0000,187500.0000,149871.6094,149854.7656,157894.0313,155007.9531,187500.0000,171528.3281,187500.0000,175252.5781,158496.2656,157768.6250,136913.7344,187500.0000,187500.0000,187500.0000,28.443024,NaN,NaN,NaN
152318.7344,161377.5938,152053.0156,158308.4375,187500.0000,187500.0000,187500.0000,187500.0000,150112.7969,149985.1406,158198.8750,154794.9219,187500.0000,171519.5469,187500.0000,175159.3125,158203.7188,157551.0313,136879.1250,187500.0000,187500.0000,187500.0000,28.447021,NaN,NaN,NaN
152603.0469,163091.2813,151870.8438,158967.4531,187500.0000,187500.0000,187500.0000,187500.0000,149870.2500,149828.9688,157897.5469,154961.5469,187500.0000,171516.2188,187500.0000,175192.0313,158463.7188,157734.0938,136838.0625,187500.0000,187500.0000,187500.0000,28.451019,NaN,NaN,NaN
153040.4219,165787.5313,151589.9219,160066.1406,187500.0000,187500.0000,187500.0000,187500.0000,149492.9063,149604.4375,157428.1875,155241.7813,187500.0000,171518.2500,187500.0000,175289.7344,158864.7656,158022.2031,136828.3906,187500.0000,187500.0000,187500.0000,28.455017,NaN,NaN,NaN
153033.0625,165859.7969,151567.0156,160116.3281,187500.0000,187500.0000,187500.0000,187500.0000,149471.8125,149592.6406,157399.2188,155249.4844,187500.0000,171520.7813,187500.0000,175315.8594,158869.5313,158029.4375,136858.8750,187500.0000,187500.0000,187500.0000,28.459015,NaN,NaN,NaN
152581.5156,163189.8750,151828.2188,159037.8125,187500.0000,187500.0000,187500.0000,187500.0000,149832.0938,149821.5625,157848.4375,154973.9375,187500.0000,171526.1406,187500.0000,175241.4531,158458.0625,157732.9688,136873.7188,187500.0000,187500.0000,187500.0000,28.463013,NaN,NaN,NaN
152260.3750,161275.8594,152009.0938,158228.3125,187500.0000,187500.0000,187500.0000,187500.0000,150082.0625,149971.1250,158164.8125,154764.5625,187500.0000,171521.8906,187500.0000,175154.9688,158161.2500,157512.3594,136838.6563,187500.0000,187500.0000,187500.0000,28.467010,NaN,NaN,NaN
152535.2031,162960.8125,151822.7813,158871.2969,187500.0000,187500.0000,187500.0000,187500.0000,149836.3594,149800.3594,157860.9531,154922.6875,187500.0000,171512.9688,187500.0000,175178.9375,158418.2344,157693.1406,136797.2344,187500.0000,187500.0000,187500.0000,28.471008,NaN,NaN,NaN
152977.6094,165672.4688,151543.1875,159977.8906,187500.0000,187500.0000,187500.0000,187500.0000,149460.7500,149574.4688,157392.4375,155208.2031,187500.0000,171517.4219,187500.0000,175279.2969,158823.9375,157984.7188,136789.2344,187500.0000,187500.0000,187500.0000,28.475006,NaN,NaN,NaN
152976.9375,165772.2813,151520.6406,160041.9219,187500.0000,187500.0000,187500.0000,187500.0000,149437.9219,149571.6250,157362.0469,155222.3281,187500.0000,171520.3906,187500.0000,175309.0781,158827.3594,157988.8594,136814.2031,187500.0000,187500.0000,187500.0000,28.479004,NaN,NaN,NaN
152518.8281,163103.6719,151772.8125,158959.9688,187500.0000,187500.0000,187500.0000,187500.0000,149789.6719,149781.5781,157800.6250,154941.1406,187500.0000,171519.2969,187500.0000,175226.0313,158416.1094,157691.7031,136828.2344,187500.0000,187500.0000,187500.0000,28.483002,NaN,NaN,NaN
152196.1250,161172.7969,151957.5625,158145.5625,187500.0000,187500.0000,187500.0000,187500.0000,150045.4688,149933.5938,158121.9375,154732.7188,187500.0000,171518.2031,187500.0000,175141.9844,158118.5625,157470.6719,136795.6406,187500.0000,187500.0000,187500.0000,28.487000,NaN,NaN,NaN
152473.3281,162842.4844,151779.9375,158786.3594,187500.0000,187500.0000,187500.0000,187500.0000,149807.0156,149780.6875,157827.7188,154893.8438,187500.0000,171513.8281,187500.0000,175171.5938,158371.3281,157648.0156,136753.4375,187500.0000,187500.0000,187500.0000,28.490997,NaN,NaN,NaN
152915.4375,165688.1719,151466.2344,159964.7500,187500.0000,187500.0000,187500.0000,187500.0000,149396.2188,149531.9531,157314.9063,155188.5781,187500.0000,171515.7188,187500.0000,175294.4844,158787.0938,157949.4844,136769.5000,187500.0000,187500.0000,187500.0000,28.494995,NaN,NaN,NaN
152465.5781,163035.3906,151724.6875,158893.2188,187500.0000,187500.0000,187500.0000,187500.0000,149752.5938,149759.9844,157759.5938,154913.8125,187500.0000,171519.5938,187500.0000,175219.7188,158377.5469,157654.4063,136784.5781,187500.0000,187500.0000,187500.0000,28.498993,NaN,NaN,NaN
152130.5313,161070.2656,151903.5469,158059.0781,187500.0000,187500.0000,187500.0000,187500.0000,150004.4063,149898.2813,158076.8750,154693.5781,187500.0000,171511.7969,187500.0000,175125.9375,158075.2656,157430.4844,136751.7969,187500.0000,187500.0000,187500.0000,28.502991,NaN,NaN,NaN
152407.6875,162724.2656,151730.0313,158694.1563,187500.0000,187500.0000,187500.0000,187500.0000,149771.8750,149748.8125,157788.9531,154855.0938,187500.0000,171509.9375,187500.0000,175157.7344,158327.8125,157608.5000,136711.5781,187500.0000,187500.0000,187500.0000,28.506989,NaN,NaN,NaN
152407.6875,162724.2656,151730.0313,158694.1563,187500.0000,187500.0000,187500.0000,187500.0000,149771.8750,149748.8125,157788.9531,154855.0938,187500.0000,171509.9375,187500.0000,175157.7344,158327.8125,157608.5000,136711.5781,187500.0000,187500.0000,187500.0000,28.510986,NaN,NaN,NaN
152854.5938,165459.0938,151448.0000,159808.9063,187500.0000,187500.0000,187500.0000,187500.0000,149389.9531,149520.6719,157316.6250,155141.4844,187500.0000,171513.1563,187500.0000,175256.2969,158736.9219,157902.3906,136701.8750,187500.0000,187500.0000,187500.0000,28.514984,NaN,NaN,NaN
152859.8438,165608.2656,151416.6563,159890.5156,187500.0000,187500.0000,187500.0000,187500.0000,149357.0781,149499.2813,157273.8594,155157.3125,187500.0000,171513.6875,187500.0000,175282.9063,158752.0469,157916.2344,136729.7500,187500.0000,187500.0000,187500.0000,28.518982,NaN,NaN,NaN
152859.8438,165608.2656,151416.6563,159890.5156,187500.0000,187500.0000,187500.0000,187500.0000,149357.0781,149499.2813,157273.8594,155157.3125,187500.0000,171513.6875,187500.0000,175282.9063,158752.0469,157916.2344,136729.7500,187500.0000,187500.0000,187500.0000,28.522980,NaN,NaN,NaN
152410.0313,162965.0625,151672.7031,158823.3594,187500.0000,187500.0000,187500.0000,187500.0000,149711.9375,149722.9375,157714.7344,154883.6875,187500.0000,171516.0313,187500.0000,175207.4688,158342.9063,157620.5625,136743.7656,187500.0000,187500.0000,187500.0000,28.526978,NaN,NaN,NaN
152410.0313,162965.0625,151672.7031,158823.3594,187500.0000,187500.0000,187500.0000,187500.0000,149711.9375,149722.9375,157714.7344,154883.6875,187500.0000,171516.0313,187500.0000,175207.4688,158342.9063,157620.5625,136743.7656,187500.0000,187500.0000,187500.0000,28.530975,NaN,NaN,NaN
152078.6719,160987.5625,151861.8438,157990.8125,187500.0000,187500.0000,187500.0000,187500.0000,149973.7188,149880.2656,158043.2344,154670.6875,187500.0000,171514.1094,187500.0000,175121.6406,158038.3125,157394.7031,136712.4063,187500.0000,187500.0000,187500.0000,28.534973,NaN,NaN,NaN
152343.0000,162606.2813,151682.3594,158606.8125,187500.0000,187500.0000,187500.0000,187500.0000,149736.5469,149713.9063,157750.7813,154822.2344,187500.0000,171505.2188,187500.0000,175142.3594,158285.3281,157567.7188,136670.3906,187500.0000,187500.0000,187500.0000,28.538971,NaN,NaN,NaN
152343.0000,162606.2813,151682.3594,158606.8125,187500.0000,187500.0000,187500.0000,187500.0000,149736.5469,149713.9063,157750.7813,154822.2344,187500.0000,171505.2188,187500.0000,175142.3594,158285.3281,157567.7188,136670.3906,187500.0000,187500.0000,187500.0000,28.543945,NaN,NaN,NaN
152795.0469,165355.7656,151401.7500,159727.6563,187500.0000,187500.0000,187500.0000,187500.0000,149355.4844,149484.5781,157278.7813,155112.6250,187500.0000,171510.5781,187500.0000,175242.4063,158696.4688,157863.2969,136659.6406,187500.0000,187500.0000,187500.0000,28.547943,NaN,NaN,NaN
152812.5000,165539.6563,151373.8594,159817.5625,187500.0000,187500.0000,187500.0000,187500.0000,149312.7031,149470.0000,157232.3281,155131.4063,187500.0000,171508.2656,187500.0000,175263.5781,158698.2344,157866.6563,136666.3438,187500.0000,187500.0000,187500.0000,28.551941,NaN,NaN,NaN
152812.5000,165539.6563,151373.8594,159817.5625,187500.0000,187500.0000,187500.0000,187500.0000,149312.7031,149470.0000,157232.3281,155131.4063,187500.0000,171508.2656,187500.0000,175263.5781,158698.2344,157866.6563,136666.3438,187500.0000,187500.0000,187500.0000,28.555939,NaN,NaN,NaN
152357.5156,162898.8125,151621.2656,158741.7031,187500.0000,187500.0000,187500.0000,187500.0000,149654.3281,149674.0469,157660.5469,154847.0469,187500.0000,171501.3594,187500.0000,175174.0625,158282.6250,157566.7656,136671.9063,187500.0000,187500.0000,187500.0000,28.559937,NaN,NaN,NaN
152020.7188,160897.2656,151810.9844,157897.8125,187500.0000,187500.0000,187500.0000,187500.0000,149918.9063,149831.6250,157990.7031,154628.7344,187500.0000,171497.6406,187500.0000,175086.2813,157973.5469,157337.9063,136640.0938,187500.0000,187500.0000,187500.0000,28.563934,NaN,NaN,NaN
152288.3125,162502.1563,151640.1250,158511.3281,187500.0000,187500.0000,187500.0000,187500.0000,149689.1563,149683.7031,157709.1719,154783.7188,187500.0000,171492.5313,187500.0000,175112.9531,158216.5000,157508.1719,136596.4375,187500.0000,187500.0000,187500.0000,28.567932,NaN,NaN,NaN
152736.0781,165255.2969,151351.7656,159629.7344,187500.0000,187500.0000,187500.0000,187500.0000,149300.9063,149438.4844,157230.6563,155069.4531,187500.0000,171493.4844,187500.0000,175206.6719,158631.5313,157806.9063,136587.4531,187500.0000,187500.0000,187500.0000,28.571930,NaN,NaN,NaN
152756.8281,165464.7969,151321.7813,159739.8594,187500.0000,187500.0000,187500.0000,187500.0000,149266.7031,149428.8281,157186.0469,155096.9844,187500.0000,171499.4375,187500.0000,175242.5000,158654.2656,157826.0938,136614.7031,187500.0000,187500.0000,187500.0000,28.575928,NaN,NaN,NaN
152756.8281,165464.7969,151321.7813,159739.8594,187500.0000,187500.0000,187500.0000,187500.0000,149266.7031,149428.8281,157186.0469,155096.9844,187500.0000,171499.4375,187500.0000,175242.5000,158654.2656,157826.0938,136614.7031,187500.0000,187500.0000,187500.0000,28.579926,NaN,NaN,NaN
152308.7969,162839.2969,151575.3281,158679.9219,187500.0000,187500.0000,187500.0000,187500.0000,149618.8594,149653.7969,157621.5625,154822.8438,187500.0000,171501.7500,187500.0000,175168.0938,158248.2656,157533.3750,136631.0625,187500.0000,187500.0000,187500.0000,28.583923,NaN,NaN,NaN
151963.4688,160809.6875,151762.9063,157822.4375,187500.0000,187500.0000,187500.0000,187500.0000,149883.1875,149800.1406,157949.7969,154597.3281,187500.0000,171495.6719,187500.0000,175074.5938,157938.8281,157305.1094,136603.5156,187500.0000,187500.0000,187500.0000,28.587921,NaN,NaN,NaN
152227.0938,162391.0313,151594.2813,158426.3438,187500.0000,187500.0000,187500.0000,187500.0000,149657.0781,149651.7344,157672.7344,154750.5938,187500.0000,171491.0000,187500.0000,175099.8750,158177.6563,157471.7031,136559.0000,187500.0000,187500.0000,187500.0000,28.591919,NaN,NaN,NaN
152681.7188,165160.0938,151309.8125,159554.0938,187500.0000,187500.0000,187500.0000,187500.0000,149270.1719,149418.8125,157198.7656,155043.2656,187500.0000,171494.6875,187500.0000,175198.6250,158590.7813,157767.5625,136545.0781,187500.0000,187500.0000,187500.0000,28.595917,NaN,NaN,NaN
152253.2813,162776.4375,151521.3125,158612.1250,187500.0000,187500.0000,187500.0000,187500.0000,149577.0938,149612.3281,157572.8906,154790.9063,187500.0000,171496.2344,187500.0000,175153.0625,158214.0469,157499.2344,136589.7813,187500.0000,187500.0000,187500.0000,28.599915,NaN,NaN,NaN
152164.1406,162287.3438,151543.6094,158340.0625,187500.0000,187500.0000,187500.0000,187500.0000,149618.6094,149615.1719,157629.0938,154709.4063,187500.0000,171485.7031,187500.0000,175082.7344,158137.0938,157433.7969,136518.4531,187500.0000,187500.0000,187500.0000,28.603912,NaN,NaN,NaN
152656.4688,165335.3125,151227.9219,159607.2500,187500.0000,187500.0000,187500.0000,187500.0000,149191.5781,149370.7344,157107.2813,155038.4219,187500.0000,171501.2031,187500.0000,175223.2031,158587.1406,157760.5781,136535.2500,187500.0000,187500.0000,187500.0000,28.607910,NaN,NaN,NaN
151858.0781,160669.9375,151666.1406,157681.2656,187500.0000,187500.0000,187500.0000,187500.0000,149810.1875,149736.6094,157860.3750,154522.3125,187500.0000,171488.1719,187500.0000,175046.7813,157873.4063,157243.2656,136530.1719,187500.0000,187500.0000,187500.0000,28.611908,NaN,NaN,NaN
152118.4531,162216.6406,151502.4375,158270.0000,187500.0000,187500.0000,187500.0000,187500.0000,149587.1250,149588.6875,157591.4219,154669.0156,187500.0000,171481.7031,187500.0000,175067.0000,158108.0313,157407.0781,136485.4844,187500.0000,187500.0000,187500.0000,28.615906,NaN,NaN,NaN
152574.9688,165007.4063,151210.1875,159401.1406,187500.0000,187500.0000,187500.0000,187500.0000,149188.6875,149330.7969,157110.6563,154957.8438,187500.0000,171478.8594,187500.0000,175154.3906,158525.9844,157705.7656,136468.9688,187500.0000,187500.0000,187500.0000,28.619904,NaN,NaN,NaN
152179.9844,162750.4219,151420.2344,158511.0938,187500.0000,187500.0000,187500.0000,187500.0000,149486.2031,149511.3125,157466.1406,154710.5156,187500.0000,171468.5156,187500.0000,175097.9688,158176.7813,157458.0625,136519.8281,187500.0000,187500.0000,187500.0000,28.623901,NaN,NaN,NaN
151836.0469,160707.1094,151609.5469,157642.0000,187500.0000,187500.0000,187500.0000,187500.0000,149751.4063,149639.2656,157787.0625,154466.7344,187500.0000,171445.1875,187500.0000,174980.9844,157872.7969,157234.4531,136498.1406,187500.0000,187500.0000,187500.0000,28.627899,NaN,NaN,NaN
152113.9375,162285.4844,151451.7031,158240.6719,187500.0000,187500.0000,187500.0000,187500.0000,149527.1094,149472.2344,157520.2500,154613.4063,187500.0000,171431.7656,187500.0000,174984.9688,158121.3281,157408.5938,136458.6094,187500.0000,187500.0000,187500.0000,28.631897,NaN,NaN,NaN
152611.5156,165168.2969,151173.9688,159410.9531,187500.0000,187500.0000,187500.0000,187500.0000,149127.2344,149207.4063,157048.5625,154914.1875,187500.0000,171429.2500,187500.0000,175063.1250,158566.3750,157728.5000,136451.6875,187500.0000,187500.0000,187500.0000,28.635895,NaN,NaN,NaN
152310.2188,163192.3750,151382.5781,158612.2031,187500.0000,187500.0000,187500.0000,187500.0000,149382.1406,149281.8906,157380.1719,154657.5469,187500.0000,171384.5469,187500.0000,174934.4219,158300.3906,157546.4063,136528.6094,187500.0000,187500.0000,187500.0000,28.639893,NaN,NaN,NaN
152039.7188,161310.5469,151592.9375,157804.1094,187500.0000,187500.0000,187500.0000,187500.0000,149638.6875,149374.8906,157713.4063,154419.3906,187500.0000,171349.7656,187500.0000,174784.3125,158050.0313,157366.6250,136527.3594,187500.0000,187500.0000,187500.0000,28.643890,NaN,NaN,NaN
152389.3125,163049.9531,151450.2344,158458.0156,187500.0000,187500.0000,187500.0000,187500.0000,149396.2344,149138.8750,157460.2813,154568.7031,187500.0000,171319.4375,187500.0000,174742.7188,158358.1406,157589.1563,136508.4531,187500.0000,187500.0000,187500.0000,28.647888,NaN,NaN,NaN
152972.8594,166143.4688,151190.1875,159708.9688,187500.0000,187500.0000,187500.0000,187500.0000,148977.9688,148811.7188,157007.2500,154887.1719,187500.0000,171305.2813,187500.0000,174784.9531,158864.7500,157956.7031,136515.0625,187500.0000,187500.0000,187500.0000,28.651886,NaN,NaN,NaN
153148.4688,166811.0000,151173.1094,159995.4375,187500.0000,187500.0000,187500.0000,187500.0000,148893.7656,148688.2188,156957.0313,154944.6406,187500.0000,171284.4531,187500.0000,174757.9844,159008.1406,158068.2188,136568.8906,187500.0000,187500.0000,187500.0000,28.655884,NaN,NaN,NaN
152848.3281,164616.7656,151435.8125,159094.8125,187500.0000,187500.0000,187500.0000,187500.0000,149198.1563,148775.0156,157373.3281,154677.0625,187500.0000,171243.9531,187500.0000,174601.0000,158730.8594,157876.6250,136625.8750,187500.0000,187500.0000,187500.0000,28.659882,NaN,NaN,NaN
152648.1094,162898.9219,151666.0625,158360.1406,187500.0000,187500.0000,187500.0000,187500.0000,149447.6250,148826.5781,157729.2969,154460.2344,187500.0000,171205.2344,187500.0000,174431.9844,158532.1094,157736.0469,136638.7969,187500.0000,187500.0000,187500.0000,28.663879,NaN,NaN,NaN
153054.7344,164757.2344,151549.0000,159076.8281,187500.0000,187500.0000,187500.0000,187500.0000,149207.3594,148580.4844,157510.1875,154637.7031,187500.0000,171180.7188,187500.0000,174385.7344,158872.3906,157981.7500,136625.7188,187500.0000,187500.0000,187500.0000,28.667877,NaN,NaN,NaN
153665.7969,167932.5156,151294.1875,160367.8750,187500.0000,187500.0000,187500.0000,187500.0000,148779.7813,148221.8125,157070.1563,154969.6250,187500.0000,171165.5625,187500.0000,174415.7813,159400.1563,158364.1406,136633.9531,187500.0000,187500.0000,187500.0000,28.671875,NaN,NaN,NaN
153862.0313,168673.0469,151281.3594,160695.0938,187500.0000,187500.0000,187500.0000,187500.0000,148694.2656,148091.4375,157026.8750,155041.6563,187500.0000,171148.8438,187500.0000,174389.3594,159557.7656,158486.1406,136689.2031,187500.0000,187500.0000,187500.0000,28.675873,NaN,NaN,NaN
153569.9531,166514.5156,151548.7500,159821.4219,187500.0000,187500.0000,187500.0000,187500.0000,149003.1094,148197.2031,157445.7969,154781.5938,187500.0000,171112.2344,187500.0000,174238.3438,159282.2969,158296.5625,136746.2500,187500.0000,187500.0000,187500.0000,28.679871,NaN,NaN,NaN
153343.5938,164747.6875,151768.8281,159068.1719,187500.0000,187500.0000,187500.0000,187500.0000,149251.0000,148245.1719,157790.6875,154548.5156,187500.0000,171066.2500,187500.0000,174059.3750,159069.5625,158146.9688,136757.4844,187500.0000,187500.0000,187500.0000,28.683868,NaN,NaN,NaN
153718.9063,166520.9844,151650.0156,159755.9844,187500.0000,187500.0000,187500.0000,187500.0000,149021.8750,148021.0938,157573.6250,154714.1875,187500.0000,171044.2344,187500.0000,174015.5469,159384.2031,158374.9063,136738.7656,187500.0000,187500.0000,187500.0000,28.687866,NaN,NaN,NaN
154306.9219,169632.0313,151399.4688,161031.6250,187500.0000,187500.0000,187500.0000,187500.0000,148609.7031,147706.3594,157142.4063,155045.8594,187500.0000,171040.2969,187500.0000,174060.7656,159887.3125,158740.2656,136740.7969,187500.0000,187500.0000,187500.0000,28.691864,NaN,NaN,NaN
154465.9531,170313.4531,151368.6875,161332.9375,187500.0000,187500.0000,187500.0000,187500.0000,148519.1563,147578.0156,157081.5469,155099.9844,187500.0000,171017.2656,187500.0000,174029.4844,160021.2813,158844.9844,136786.8438,187500.0000,187500.0000,187500.0000,28.695862,NaN,NaN,NaN
154149.7344,168115.5625,151626.8750,160447.0313,187500.0000,187500.0000,187500.0000,187500.0000,148832.3281,147699.5625,157488.7969,154832.3594,187500.0000,170980.2500,187500.0000,173883.2500,159729.5156,158644.0469,136839.9063,187500.0000,187500.0000,187500.0000,28.699860,NaN,NaN,NaN
153903.3750,166289.3750,151849.9531,159679.8281,187500.0000,187500.0000,187500.0000,187500.0000,149094.2813,147782.6406,157836.1406,154598.3906,187500.0000,170939.8125,187500.0000,173716.3281,159497.3281,158480.0938,136847.5469,187500.0000,187500.0000,187500.0000,28.703857,NaN,NaN,NaN
154240.4219,167967.2813,151722.7656,160331.7188,187500.0000,187500.0000,187500.0000,187500.0000,148869.3906,147561.9219,157614.0625,154751.2969,187500.0000,170915.9844,187500.0000,173670.0313,159786.6094,158688.1875,136822.3125,187500.0000,187500.0000,187500.0000,28.707855,NaN,NaN,NaN
154800.2813,171017.5000,151467.3906,161589.8281,187500.0000,187500.0000,187500.0000,187500.0000,148463.6094,147262.2031,157179.8281,155080.0625,187500.0000,170916.6563,187500.0000,173722.4688,160266.8594,159034.4844,136815.3750,187500.0000,187500.0000,187500.0000,28.711853,NaN,NaN,NaN
154947.3594,171678.7656,151438.9219,161895.5313,187500.0000,187500.0000,187500.0000,187500.0000,148383.3750,147167.8750,157119.6563,155143.5156,187500.0000,170905.7031,187500.0000,173710.1250,160387.6875,159128.3438,136857.5625,187500.0000,187500.0000,187500.0000,28.715851,NaN,NaN,NaN
154603.7969,169443.4219,151681.7969,160994.6875,187500.0000,187500.0000,187500.0000,187500.0000,148691.3750,147286.1250,157508.6719,154866.1563,187500.0000,170865.4688,187500.0000,173563.3906,160082.1094,158916.5156,136906.4688,187500.0000,187500.0000,187500.0000,28.719849,NaN,NaN,NaN
154333.5625,167555.9531,151901.4219,160206.8438,187500.0000,187500.0000,187500.0000,187500.0000,148961.2500,147385.4063,157853.2656,154626.7656,187500.0000,170828.3594,187500.0000,173403.8438,159832.6406,158740.1875,136911.0625,187500.0000,187500.0000,187500.0000,28.723846,NaN,NaN,NaN
154650.6563,169158.9844,151781.5938,160836.2188,187500.0000,187500.0000,187500.0000,187500.0000,148752.0625,147204.1875,157643.1875,154779.7031,187500.0000,170813.5625,187500.0000,173372.4375,160100.5938,158933.1250,136880.8281,187500.0000,187500.0000,187500.0000,28.727844,NaN,NaN,NaN
155179.9063,172145.5000,151514.4531,162064.9375,187500.0000,187500.0000,187500.0000,187500.0000,148343.4688,146907.9688,157201.8438,155095.7500,187500.0000,170810.9688,187500.0000,173423.4063,160561.0313,159264.7500,136865.5000,187500.0000,187500.0000,187500.0000,28.731842,NaN,NaN,NaN
155309.9219,172781.8594,151478.1719,162360.5625,187500.0000,187500.0000,187500.0000,187500.0000,148263.3906,146828.4063,157135.9688,155155.8750,187500.0000,170801.7656,187500.0000,173418.6406,160667.8594,159348.1094,136900.1406,187500.0000,187500.0000,187500.0000,28.735840,NaN,NaN,NaN
154959.5625,170528.1875,151723.5625,161458.1094,187500.0000,187500.0000,187500.0000,187500.0000,148578.7656,146979.7656,157528.3906,154884.0156,187500.0000,170769.7656,187500.0000,173288.5781,160352.0781,159129.1563,136945.9531,187500.0000,187500.0000,187500.0000,28.739838,NaN,NaN,NaN
154662.6250,168573.4688,151934.1406,160639.9531,187500.0000,187500.0000,187500.0000,187500.0000,148847.6563,147078.6719,157867.0313,154633.8281,187500.0000,170729.1719,187500.0000,173127.8438,160086.2031,158940.2969,136946.4063,187500.0000,187500.0000,187500.0000,28.743835,NaN,NaN,NaN
154960.4219,170108.9688,151817.5625,161247.3594,187500.0000,187500.0000,187500.0000,187500.0000,148651.6719,146915.8438,157665.0625,154788.2344,187500.0000,170721.1875,187500.0000,173106.7500,160337.5781,159119.9688,136913.0625,187500.0000,187500.0000,187500.0000,28.747833,NaN,NaN,NaN
155479.2500,173058.2813,151557.4219,162471.1563,187500.0000,187500.0000,187500.0000,187500.0000,148255.9375,146651.7813,157232.9531,155114.5781,187500.0000,170729.0781,187500.0000,173174.0000,160783.7656,159439.1875,136892.8750,187500.0000,187500.0000,187500.0000,28.751831,NaN,NaN,NaN
155588.3594,173664.6250,151510.1250,162754.7656,187500.0000,187500.0000,187500.0000,187500.0000,148171.9219,146566.5781,157155.5781,155172.6406,187500.0000,170719.0625,187500.0000,173169.8906,160879.3750,159512.0781,136922.7813,187500.0000,187500.0000,187500.0000,28.755829,NaN,NaN,NaN
155225.5781,171390.5313,151751.4375,161847.9688,187500.0000,187500.0000,187500.0000,187500.0000,148490.2500,146726.2031,157543.0469,154904.7969,187500.0000,170692.1250,187500.0000,173048.9375,160554.1406,159284.4688,136965.4531,187500.0000,187500.0000,187500.0000,28.759827,NaN,NaN,NaN
154917.6406,169393.6719,151967.5156,161019.7031,187500.0000,187500.0000,187500.0000,187500.0000,148769.1875,146853.7656,157888.0625,154658.9844,187500.0000,170660.3438,187500.0000,172902.2031,160274.4219,159084.3125,136962.6563,187500.0000,187500.0000,187500.0000,28.763824,NaN,NaN,NaN
155184.9219,170850.3281,151841.5625,161589.7813,187500.0000,187500.0000,187500.0000,187500.0000,148571.5469,146687.0313,157679.2344,154796.6250,187500.0000,170647.2188,187500.0000,172875.5000,160506.1719,159248.5938,136922.9375,187500.0000,187500.0000,187500.0000,28.767822,NaN,NaN,NaN
155688.4375,173761.1094,151578.9531,162797.4688,187500.0000,187500.0000,187500.0000,187500.0000,148181.6250,146435.5000,157246.9531,155118.1719,187500.0000,170658.0000,187500.0000,172949.1719,160940.1094,159559.1719,136898.5313,187500.0000,187500.0000,187500.0000,28.771820,NaN,NaN,NaN
155794.5156,174360.4531,151534.7344,163082.1250,187500.0000,187500.0000,187500.0000,187500.0000,148104.1719,146378.6563,157173.7500,155180.1250,187500.0000,170654.5313,187500.0000,172959.1563,161028.4063,159627.7031,136924.7188,187500.0000,187500.0000,187500.0000,28.775818,NaN,NaN,NaN
155414.2188,172061.4688,151763.4844,162158.3438,187500.0000,187500.0000,187500.0000,187500.0000,148414.2969,146530.5625,157550.0938,154900.8438,187500.0000,170621.1250,187500.0000,172834.3438,160695.0625,159394.5938,136962.7188,187500.0000,187500.0000,187500.0000,28.779816,NaN,NaN,NaN
155092.8750,170018.5000,151978.9375,161310.3281,187500.0000,187500.0000,187500.0000,187500.0000,148698.7500,146668.6563,157897.9688,154650.1250,187500.0000,170590.1406,187500.0000,172692.3438,160403.6875,159185.9844,136956.4219,187500.0000,187500.0000,187500.0000,28.783813,NaN,NaN,NaN
155350.9375,171422.3125,151862.1250,161864.2188,187500.0000,187500.0000,187500.0000,187500.0000,148514.8906,146531.9531,157702.7031,154790.8750,187500.0000,170584.2344,187500.0000,172677.7031,160621.9375,159340.1563,136913.6563,187500.0000,187500.0000,187500.0000,28.787811,NaN,NaN,NaN
155835.5313,174293.1094,151591.3594,163052.6875,187500.0000,187500.0000,187500.0000,187500.0000,148122.8594,146273.0313,157263.9844,155106.0781,187500.0000,170591.8750,187500.0000,172747.8594,161045.4688,159641.8750,136885.1875,187500.0000,187500.0000,187500.0000,28.791809,NaN,NaN,NaN
155935.9844,174890.2813,151544.3750,163338.8906,187500.0000,187500.0000,187500.0000,187500.0000,148046.8906,146219.9219,157187.2813,155174.0938,187500.0000,170591.8750,187500.0000,172763.7813,161129.1406,159705.2656,136908.5156,187500.0000,187500.0000,187500.0000,28.795807,NaN,NaN,NaN
155560.3750,172593.3750,151782.7344,162425.6719,187500.0000,187500.0000,187500.0000,187500.0000,148367.7188,146397.6250,157572.9063,154910.9219,187500.0000,170570.8906,187500.0000,172656.3281,160794.7969,159470.7031,136948.7344,187500.0000,187500.0000,187500.0000,28.799805,NaN,NaN,NaN
155219.6094,170499.8438,151991.5000,161554.1406,187500.0000,187500.0000,187500.0000,187500.0000,148650.2031,146526.5000,157915.7656,154652.4688,187500.0000,170536.6250,187500.0000,172509.9375,160492.8750,159252.7813,136940.1719,187500.0000,187500.0000,187500.0000,28.803802,NaN,NaN,NaN
155461.1563,171849.0625,151873.2188,162084.5000,187500.0000,187500.0000,187500.0000,187500.0000,148470.8750,146395.1875,157720.8281,154786.4688,187500.0000,170530.7969,187500.0000,172496.0313,160697.0625,159395.1094,136892.8750,187500.0000,187500.0000,187500.0000,28.807800,NaN,NaN,NaN
155943.6250,174705.0938,151607.8125,163270.1406,187500.0000,187500.0000,187500.0000,187500.0000,148086.6563,146161.0000,157287.3906,155105.5938,187500.0000,170545.7656,187500.0000,172577.9531,161113.4063,159691.2656,136862.0313,187500.0000,187500.0000,187500.0000,28.811798,NaN,NaN,NaN
156033.5156,175295.5625,151550.6563,163547.5938,187500.0000,187500.0000,187500.0000,187500.0000,148003.3906,146098.4219,157199.8750,155165.2500,187500.0000,170542.7969,187500.0000,172591.3750,161195.2969,159754.0781,136884.6719,187500.0000,187500.0000,187500.0000,28.815796,NaN,NaN,NaN
155305.0313,170866.5469,151996.6875,161743.6719,187500.0000,187500.0000,187500.0000,187500.0000,148610.1875,146428.4219,157930.0938,154634.6875,187500.0000,170488.1875,187500.0000,172346.5469,160542.6094,159289.2500,136907.1719,187500.0000,187500.0000,187500.0000,28.819794,NaN,NaN,NaN
155525.0156,172160.2344,151869.4063,162243.8125,187500.0000,187500.0000,187500.0000,187500.0000,148426.1719,146284.8281,157728.6406,154751.6719,187500.0000,170473.6875,187500.0000,172323.5469,160734.7344,159422.2500,136855.1719,187500.0000,187500.0000,187500.0000,28.823792,NaN,NaN,NaN
156000.0313,175000.8750,151601.1094,163422.3750,187500.0000,187500.0000,187500.0000,187500.0000,148042.8125,146051.2813,157292.7031,155067.7656,187500.0000,170487.8281,187500.0000,172407.1563,161145.3594,159713.6250,136821.2344,187500.0000,187500.0000,187500.0000,28.827789,NaN,NaN,NaN
156091.9219,175600.3438,151546.0000,163707.5938,187500.0000,187500.0000,187500.0000,187500.0000,147962.4219,146004.0938,157206.7188,155134.3750,187500.0000,170488.5000,187500.0000,172429.6875,161222.3594,159770.9063,136838.5781,187500.0000,187500.0000,187500.0000,28.831787,NaN,NaN,NaN
155698.1563,173285.6406,151768.2344,162779.1250,187500.0000,187500.0000,187500.0000,187500.0000,148272.4219,146166.1719,157576.2344,154860.0781,187500.0000,170460.0938,187500.0000,172318.0000,160878.5000,159527.5000,136871.1094,187500.0000,187500.0000,187500.0000,28.835785,NaN,NaN,NaN
155351.0625,171139.8281,151988.2969,161891.6875,187500.0000,187500.0000,187500.0000,187500.0000,148571.2813,146323.5469,157934.0469,154605.5313,187500.0000,170435.3906,187500.0000,172187.7813,160566.0781,159301.9688,136862.3594,187500.0000,187500.0000,187500.0000,28.839783,NaN,NaN,NaN
155572.2656,172404.5469,151873.4219,162387.0313,187500.0000,187500.0000,187500.0000,187500.0000,148402.4531,146204.4375,157746.8750,154731.5781,187500.0000,170430.3281,187500.0000,172177.8906,160753.5469,159431.3906,136812.0000,187500.0000,187500.0000,187500.0000,28.843781,NaN,NaN,NaN
156034.4844,175223.2969,151595.6563,163550.4531,187500.0000,187500.0000,187500.0000,187500.0000,148012.7031,145955.8594,157300.9375,155039.1406,187500.0000,170438.2344,187500.0000,172254.2969,161159.4063,159718.3125,136775.4375,187500.0000,187500.0000,187500.0000,28.847778,NaN,NaN,NaN
156126.8125,175834.6563,151537.7969,163839.4375,187500.0000,187500.0000,187500.0000,187500.0000,147931.0781,145910.2656,157210.4063,155106.8906,187500.0000,170440.6719,187500.0000,172280.7813,161237.3906,159776.1406,136792.4219,187500.0000,187500.0000,187500.0000,28.851776,NaN,NaN,NaN
155740.4531,173534.6719,151765.5625,162920.1875,187500.0000,187500.0000,187500.0000,187500.0000,148245.8125,146095.3125,157585.3438,154839.3125,187500.0000,170420.1563,187500.0000,172181.7656,160894.0625,159533.7344,136825.1094,187500.0000,187500.0000,187500.0000,28.855774,NaN,NaN,NaN
155740.4531,173534.6719,151765.5625,162920.1875,187500.0000,187500.0000,187500.0000,187500.0000,148245.8125,146095.3125,157585.3438,154839.3125,187500.0000,170420.1563,187500.0000,172181.7656,160894.0625,159533.7344,136825.1094,187500.0000,187500.0000,187500.0000,28.859772,NaN,NaN,NaN
155376.9219,171351.0781,151975.4531,162008.1406,187500.0000,187500.0000,187500.0000,187500.0000,148536.2031,146240.7344,157934.9844,154568.5156,187500.0000,170388.1094,187500.0000,172042.4375,160573.2031,159301.9531,136812.9219,187500.0000,187500.0000,187500.0000,28.863770,NaN,NaN,NaN
155590.7813,172577.6719,151863.0625,162485.8438,187500.0000,187500.0000,187500.0000,187500.0000,148372.8438,146129.5156,157753.0469,154688.5781,187500.0000,170385.6875,187500.0000,172035.3750,160754.9219,159428.3906,136763.5625,187500.0000,187500.0000,187500.0000,28.867767,NaN,NaN,NaN
156055.3750,175394.0625,151590.2188,163650.5469,187500.0000,187500.0000,187500.0000,187500.0000,147988.0625,145901.9688,157313.4531,154999.9063,187500.0000,170399.3594,187500.0000,172121.2344,161157.1406,159712.9063,136725.0156,187500.0000,187500.0000,187500.0000,28.871765,NaN,NaN,NaN
156142.3125,176015.0000,151522.5781,163938.3906,187500.0000,187500.0000,187500.0000,187500.0000,147897.6250,145842.2188,157212.8594,155064.2344,187500.0000,170398.2656,187500.0000,172143.8281,161237.1250,159772.6563,136741.6875,187500.0000,187500.0000,187500.0000,28.875763,NaN,NaN,NaN
155757.9844,173725.1250,151750.0781,163024.3125,187500.0000,187500.0000,187500.0000,187500.0000,148213.2500,146027.6094,157587.3750,154801.9844,187500.0000,170380.0313,187500.0000,172049.6563,160895.4219,159531.5000,136774.9688,187500.0000,187500.0000,187500.0000,28.879761,NaN,NaN,NaN
155397.9531,171525.1563,151970.5313,162112.1250,187500.0000,187500.0000,187500.0000,187500.0000,148514.7500,146193.2969,157949.3750,154540.9688,187500.0000,170355.6875,187500.0000,171921.8750,160571.2188,159296.8125,136763.4063,187500.0000,187500.0000,187500.0000,28.883759,NaN,NaN,NaN
155598.2031,172708.7500,151854.3281,162569.0781,187500.0000,187500.0000,187500.0000,187500.0000,148350.5625,146068.0625,157764.9844,154654.0313,187500.0000,170349.1875,187500.0000,171908.5781,160747.3438,159418.1719,136713.9063,187500.0000,187500.0000,187500.0000,28.887756,NaN,NaN,NaN
156062.0156,175524.6250,151581.3438,163734.5625,187500.0000,187500.0000,187500.0000,187500.0000,147967.6563,145838.5625,157323.6250,154968.3750,187500.0000,170363.3750,187500.0000,171996.8438,161149.5625,159701.5938,136675.0313,187500.0000,187500.0000,187500.0000,28.891754,NaN,NaN,NaN
156153.8906,176167.3438,151514.0625,164034.1719,187500.0000,187500.0000,187500.0000,187500.0000,147876.3906,145789.9375,157221.2188,155039.7813,187500.0000,170363.3594,187500.0000,172025.6406,161227.7500,159757.8750,136686.5938,187500.0000,187500.0000,187500.0000,28.895752,NaN,NaN,NaN
155760.8750,173873.9063,151731.0156,163113.1719,187500.0000,187500.0000,187500.0000,187500.0000,148182.4531,145957.3281,157583.7344,154770.2969,187500.0000,170338.3906,187500.0000,171924.4219,160885.0156,159515.0313,136717.7656,187500.0000,187500.0000,187500.0000,28.899750,NaN,NaN,NaN
155396.8281,171651.7969,151953.1406,162191.4531,187500.0000,187500.0000,187500.0000,187500.0000,148487.5938,146125.4219,157947.8438,154506.7188,187500.0000,170314.9844,187500.0000,171799.0938,160558.0469,159278.5313,136706.9063,187500.0000,187500.0000,187500.0000,28.903748,NaN,NaN,NaN
155595.1406,172811.3594,151842.1406,162639.5156,187500.0000,187500.0000,187500.0000,187500.0000,148328.9375,146019.3125,157770.2500,154619.6250,187500.0000,170311.0625,187500.0000,171791.9531,160726.3438,159393.8750,136654.0000,187500.0000,187500.0000,187500.0000,28.907745,NaN,NaN,NaN
156050.0000,175616.4844,151560.0938,163793.7188,187500.0000,187500.0000,187500.0000,187500.0000,147938.1250,145777.4219,157319.9688,154924.9844,187500.0000,170321.2031,187500.0000,171874.4531,161127.4375,159677.1250,136615.1094,187500.0000,187500.0000,187500.0000,28.911743,NaN,NaN,NaN
156148.0313,176278.0313,151495.0156,164101.8906,187500.0000,187500.0000,187500.0000,187500.0000,147849.5469,145734.9531,157218.9844,155000.8906,187500.0000,170327.7813,187500.0000,171911.4219,161211.6875,159739.8281,136631.5156,187500.0000,187500.0000,187500.0000,28.915741,NaN,NaN,NaN
155764.8594,174003.3438,151719.4844,163193.2031,187500.0000,187500.0000,187500.0000,187500.0000,148161.2188,145924.1563,157589.4219,154741.3281,187500.0000,170311.1875,187500.0000,171823.0625,160871.7188,159499.7813,136664.7813,187500.0000,187500.0000,187500.0000,28.919739,NaN,NaN,NaN
155388.9844,171753.8750,151934.1875,162254.7031,187500.0000,187500.0000,187500.0000,187500.0000,148460.4531,146079.1563,157948.5469,154469.4375,187500.0000,170282.6250,187500.0000,171691.0938,160540.4844,159259.9531,136652.6875,187500.0000,187500.0000,187500.0000,28.923737,NaN,NaN,NaN
155581.8125,172880.3594,151826.3594,162689.4688,187500.0000,187500.0000,187500.0000,187500.0000,148307.8438,145975.9531,157776.5938,154580.9063,187500.0000,170280.5938,187500.0000,171685.7031,160704.0469,159371.5938,136600.7188,187500.0000,187500.0000,187500.0000,28.927734,NaN,NaN,NaN
156041.0156,175686.2188,151550.5000,163847.9219,187500.0000,187500.0000,187500.0000,187500.0000,147922.7031,145750.4063,157332.5313,154893.7656,187500.0000,170295.1406,187500.0000,171776.0156,161102.3906,159651.9375,136559.8281,187500.0000,187500.0000,187500.0000,28.931732,NaN,NaN,NaN
156133.1719,176358.9688,151473.7656,164155.7031,187500.0000,187500.0000,187500.0000,187500.0000,147823.1250,145688.4219,157218.1875,154966.6250,187500.0000,170295.2813,187500.0000,171806.5938,161187.6719,159714.0781,136573.4063,187500.0000,187500.0000,187500.0000,28.935730,NaN,NaN,NaN
155748.6250,174095.6250,151692.5469,163250.1875,187500.0000,187500.0000,187500.0000,187500.0000,148129.9375,145870.5938,157580.9375,154707.2188,187500.0000,170276.3906,187500.0000,171717.8906,160846.1406,159471.0625,136602.7031,187500.0000,187500.0000,187500.0000,28.939728,NaN,NaN,NaN
155375.4688,171832.5781,151915.5938,162310.7813,187500.0000,187500.0000,187500.0000,187500.0000,148437.9688,146042.9219,157948.9531,154440.7188,187500.0000,170253.2813,187500.0000,171594.9844,160511.0625,159227.5156,136590.4063,187500.0000,187500.0000,187500.0000,28.943726,NaN,NaN,NaN
155553.0938,172916.0781,151801.3281,162722.0625,187500.0000,187500.0000,187500.0000,187500.0000,148281.5156,145925.3281,157771.5938,154540.0000,187500.0000,170244.4688,187500.0000,171581.1250,160668.1719,159334.2969,136536.6250,187500.0000,187500.0000,187500.0000,28.947723,NaN,NaN,NaN
156012.1094,175722.6094,151525.1094,163880.2813,187500.0000,187500.0000,187500.0000,187500.0000,147897.9063,145700.8906,157326.4531,154852.5469,187500.0000,170260.8750,187500.0000,171674.6875,161067.4219,159615.9063,136496.4375,187500.0000,187500.0000,187500.0000,28.951721,NaN,NaN,NaN
156114.0625,176423.4063,151453.2656,164203.5156,187500.0000,187500.0000,187500.0000,187500.0000,147801.8281,145656.6094,157215.3750,154933.3281,187500.0000,170267.7656,187500.0000,171715.7031,161155.7188,159681.0156,136510.9531,187500.0000,187500.0000,187500.0000,28.955719,NaN,NaN,NaN
155722.5000,174162.1719,151662.2188,163292.9219,187500.0000,187500.0000,187500.0000,187500.0000,148099.5313,145824.0781,157568.2656,154666.0938,187500.0000,170243.8594,187500.0000,171621.4531,160815.0781,159439.4063,136540.3906,187500.0000,187500.0000,187500.0000,28.959717,NaN,NaN,NaN
155343.8750,171876.9063,151885.0000,162342.5313,187500.0000,187500.0000,187500.0000,187500.0000,148408.6094,145998.3750,157937.8281,154394.7188,187500.0000,170220.6250,187500.0000,171499.4375,160475.3750,159193.0469,136527.1094,187500.0000,187500.0000,187500.0000,28.963715,NaN,NaN,NaN
155524.9688,172938.2188,151782.5156,162749.7031,187500.0000,187500.0000,187500.0000,187500.0000,148264.2188,145904.0938,157774.7969,154499.2031,187500.0000,170219.6094,187500.0000,171496.1250,160629.2344,159298.1719,136475.6094,187500.0000,187500.0000,187500.0000,28.967712,NaN,NaN,NaN
155974.2969,175731.8906,151497.2813,163896.5000,187500.0000,187500.0000,187500.0000,187500.0000,147872.4063,145663.0938,157321.2500,154803.6875,187500.0000,170229.1094,187500.0000,171581.1875,161026.3906,159577.8125,136433.7656,187500.0000,187500.0000,187500.0000,28.971710,NaN,NaN,NaN
156077.4844,176451.3906,151420.9063,164226.0625,187500.0000,187500.0000,187500.0000,187500.0000,147771.9844,145614.9531,157204.5781,154887.1250,187500.0000,170234.7031,187500.0000,171623.4531,161115.9688,159642.8594,136445.5938,187500.0000,187500.0000,187500.0000,28.975708,NaN,NaN,NaN
155694.9375,174207.1719,151636.4844,163328.1406,187500.0000,187500.0000,187500.0000,187500.0000,148074.7656,145799.1563,157563.1406,154631.1094,187500.0000,170217.2500,187500.0000,171539.9531,160776.7656,159401.6094,136475.2969,187500.0000,187500.0000,187500.0000,28.979706,NaN,NaN,NaN
155304.9375,171892.3594,151853.3438,162361.7500,187500.0000,187500.0000,187500.0000,187500.0000,148380.0000,145958.4063,157927.2656,154352.5156,187500.0000,170189.3906,187500.0000,171410.8906,160433.2813,159151.5000,136462.1563,187500.0000,187500.0000,187500.0000,28.983704,NaN,NaN,NaN
155477.0781,172923.4375,151748.8438,162754.5156,187500.0000,187500.0000,187500.0000,187500.0000,148235.9531,145861.8438,157762.7031,154452.0625,187500.0000,170186.3594,187500.0000,171405.5469,160579.6406,159249.5313,136407.2813,187500.0000,187500.0000,187500.0000,28.987701,NaN,NaN,NaN
155932.8281,175725.7188,151470.2344,163909.5313,187500.0000,187500.0000,187500.0000,187500.0000,147850.0938,145638.6250,157314.2969,154764.6875,187500.0000,170202.4688,187500.0000,171500.9063,160976.5469,159528.5938,136365.3281,187500.0000,187500.0000,187500.0000,28.991699,NaN,NaN,NaN
156031.9063,176454.2031,151385.4063,164238.6406,187500.0000,187500.0000,187500.0000,187500.0000,147742.0781,145574.7813,157187.1250,154843.8750,187500.0000,170204.9063,187500.0000,171538.7188,161068.8750,159595.9219,136378.4531,187500.0000,187500.0000,187500.0000,28.995697,NaN,NaN,NaN
155653.3594,174225.0000,151601.5313,163347.7031,187500.0000,187500.0000,187500.0000,187500.0000,148046.5781,145761.5469,157544.9688,154590.9219,187500.0000,170191.4531,187500.0000,171460.8125,160734.4531,159359.4688,136411.5938,187500.0000,187500.0000,187500.0000,28.999695,NaN,NaN,NaN
155268.7344,171903.4219,151828.0625,162383.2031,187500.0000,187500.0000,187500.0000,187500.0000,148360.7969,145943.5000,157919.7188,154317.6719,187500.0000,170170.8438,187500.0000,171342.9531,160390.3438,159110.2813,136400.7188,187500.0000,187500.0000,187500.0000,29.003693,NaN,NaN,NaN
155427.4063,172891.7500,151718.8125,162752.5156,187500.0000,187500.0000,187500.0000,187500.0000,148214.1719,145835.3594,157753.0469,154404.5313,187500.0000,170162.1250,187500.0000,171329.7188,160531.5469,159205.6875,136346.4844,187500.0000,187500.0000,187500.0000,29.007690,NaN,NaN,NaN
155881.2344,175688.9219,151438.8906,163903.3750,187500.0000,187500.0000,187500.0000,187500.0000,147828.4219,145612.1250,157304.1250,154714.6563,187500.0000,170177.7031,187500.0000,171425.3125,160927.2813,159484.5156,136303.9063,187500.0000,187500.0000,187500.0000,29.011688,NaN,NaN,NaN
155988.2969,176444.1719,151356.5938,164246.3594,187500.0000,187500.0000,187500.0000,187500.0000,147721.2813,145563.0313,157178.7813,154801.1563,187500.0000,170183.4531,187500.0000,171471.2031,161020.2031,159551.7500,136313.8594,187500.0000,187500.0000,187500.0000,29.015686,NaN,NaN,NaN
155603.1563,174220.6250,151562.0625,163352.2813,187500.0000,187500.0000,187500.0000,187500.0000,148015.3438,145730.8906,157525.5938,154542.5781,187500.0000,170163.2656,187500.0000,171385.7031,160686.1875,159315.0938,136345.3750,187500.0000,187500.0000,187500.0000,29.019684,NaN,NaN,NaN
155215.4063,171880.6094,151790.1094,162380.7500,187500.0000,187500.0000,187500.0000,187500.0000,148332.9375,145912.7188,157903.0938,154269.3906,187500.0000,170143.5000,187500.0000,171269.0313,160339.7656,159064.0156,136335.3750,187500.0000,187500.0000,187500.0000,29.023682,NaN,NaN,NaN
155374.8594,172844.3281,151690.3594,162744.7656,187500.0000,187500.0000,187500.0000,187500.0000,148196.1563,145823.4063,157747.0313,154361.1563,187500.0000,170140.3281,187500.0000,171263.7813,160474.9219,159153.9844,136279.9844,187500.0000,187500.0000,187500.0000,29.027679,NaN,NaN,NaN
155820.0156,175630.5313,151402.3750,163886.4063,187500.0000,187500.0000,187500.0000,187500.0000,147803.7500,145583.4375,157289.3594,154665.4219,187500.0000,170151.1719,187500.0000,171352.6406,160869.1250,159430.7656,136236.4531,187500.0000,187500.0000,187500.0000,29.031677,NaN,NaN,NaN
155929.4063,176406.8438,151316.3438,164237.3750,187500.0000,187500.0000,187500.0000,187500.0000,147692.9219,145530.3281,157157.8438,154755.0469,187500.0000,170157.4531,187500.0000,171399.9844,160964.8125,159499.3125,136246.0000,187500.0000,187500.0000,187500.0000,29.035675,NaN,NaN,NaN
155552.2031,174203.3594,151526.2969,163355.5469,187500.0000,187500.0000,187500.0000,187500.0000,147989.6250,145714.2813,157507.3750,154505.2031,187500.0000,170142.4844,187500.0000,171323.7500,160631.9063,159262.8594,136276.9219,187500.0000,187500.0000,187500.0000,29.039673,NaN,NaN,NaN
155152.1094,171835.3750,151747.4688,162370.2188,187500.0000,187500.0000,187500.0000,187500.0000,148305.7344,145884.5625,157880.3125,154224.1094,187500.0000,170119.4063,187500.0000,171204.1406,160287.1094,159012.8125,136273.0781,187500.0000,187500.0000,187500.0000,29.043671,NaN,NaN,NaN
155309.7344,172773.2969,151655.5313,162736.0938,187500.0000,187500.0000,187500.0000,187500.0000,148189.5781,145811.3281,157738.4844,154323.2031,187500.0000,170129.4844,187500.0000,171218.4688,160441.1563,159119.0156,136245.0938,187500.0000,187500.0000,187500.0000,29.047668,NaN,NaN,NaN
155764.7813,175569.2969,151378.0938,163889.3750,187500.0000,187500.0000,187500.0000,187500.0000,147808.2969,145596.3281,157292.7813,154639.1094,187500.0000,170151.2344,187500.0000,171322.8906,160842.8594,159402.9844,136209.6406,187500.0000,187500.0000,187500.0000,29.051666,NaN,NaN,NaN
155871.8438,176361.6094,151283.6719,164242.5313,187500.0000,187500.0000,187500.0000,187500.0000,147688.9219,145528.7188,157151.8750,154725.8594,187500.0000,170154.1719,187500.0000,171366.4375,160943.1875,159475.7188,136220.5156,187500.0000,187500.0000,187500.0000,29.055664,NaN,NaN,NaN
155495.5781,174169.2969,151490.9844,163364.5156,187500.0000,187500.0000,187500.0000,187500.0000,147983.6250,145710.4375,157498.2344,154476.3906,187500.0000,170138.5938,187500.0000,171291.2656,160610.8438,159239.4844,136250.5938,187500.0000,187500.0000,187500.0000,29.059662,NaN,NaN,NaN
155098.2500,171787.5938,151719.6719,162374.2344,187500.0000,187500.0000,187500.0000,187500.0000,148302.9688,145895.9375,157878.6094,154197.5469,187500.0000,170116.9375,187500.0000,171173.8125,160255.8125,158981.4531,136238.7656,187500.0000,187500.0000,187500.0000,29.063660,NaN,NaN,NaN
155241.1719,172687.0000,151617.8906,162706.8125,187500.0000,187500.0000,187500.0000,187500.0000,148167.6094,145795.4219,157723.4844,154277.4844,187500.0000,170109.2188,187500.0000,171161.6719,160383.6875,159066.5469,136184.7031,187500.0000,187500.0000,187500.0000,29.067657,NaN,NaN,NaN
155692.6563,175483.6719,151335.0781,163855.5156,187500.0000,187500.0000,187500.0000,187500.0000,147780.2031,145571.4531,157270.4844,154589.5938,187500.0000,170125.4531,187500.0000,171260.3125,160777.9844,159343.1719,136140.1406,187500.0000,187500.0000,187500.0000,29.071655,NaN,NaN,NaN
155809.4063,176301.5938,151245.7500,164223.9531,187500.0000,187500.0000,187500.0000,187500.0000,147664.5156,145518.8125,157132.9531,154686.4063,187500.0000,170134.1875,187500.0000,171313.4375,160880.7656,159417.2031,136150.5938,187500.0000,187500.0000,187500.0000,29.075653,NaN,NaN,NaN
155430.1875,174117.4688,151446.3438,163346.0938,187500.0000,187500.0000,187500.0000,187500.0000,147953.3281,145685.6250,157471.0000,154434.4063,187500.0000,170116.7344,187500.0000,171235.0781,160552.3281,159184.2500,136183.0469,187500.0000,187500.0000,187500.0000,29.079651,NaN,NaN,NaN
155032.9063,171725.9688,151678.0625,162352.9844,187500.0000,187500.0000,187500.0000,187500.0000,148277.3125,145873.3750,157854.2969,154156.1250,187500.0000,170098.4219,187500.0000,171121.3906,160198.1406,158927.5156,136174.4844,187500.0000,187500.0000,187500.0000,29.083649,NaN,NaN,NaN
155176.1719,172599.7344,151585.2500,162678.4531,187500.0000,187500.0000,187500.0000,187500.0000,148150.9844,145793.0625,157710.1719,154237.8438,187500.0000,170096.0938,187500.0000,171116.4063,160320.7656,159008.9844,136120.7500,187500.0000,187500.0000,187500.0000,29.087646,NaN,NaN,NaN
155619.3438,175382.4219,151295.0469,163815.7031,187500.0000,187500.0000,187500.0000,187500.0000,147757.3594,145554.9844,157250.1719,154540.9375,187500.0000,170107.3438,187500.0000,171208.0156,160713.7500,159285.0313,136075.7656,187500.0000,187500.0000,187500.0000,29.091644,NaN,NaN,NaN
155739.2656,176223.9844,151202.1875,164192.2813,187500.0000,187500.0000,187500.0000,187500.0000,147637.8750,145499.9688,157107.5156,154638.7344,187500.0000,170115.7188,187500.0000,171262.4844,160819.4844,159361.4688,136085.4219,187500.0000,187500.0000,187500.0000,29.095642,NaN,NaN,NaN
154960.0156,171645.7656,151631.4063,162317.8750,187500.0000,187500.0000,187500.0000,187500.0000,148245.8906,145855.2813,157826.5781,154105.4219,187500.0000,170076.7813,187500.0000,171069.3125,160135.1719,158871.0938,136108.4219,187500.0000,187500.0000,187500.0000,29.099640,NaN,NaN,NaN
155100.1875,172491.6094,151542.9844,162632.7344,187500.0000,187500.0000,187500.0000,187500.0000,148126.3750,145778.1094,157688.7969,154186.4844,187500.0000,170076.2500,187500.0000,171066.3906,160254.9688,158950.8750,136056.1406,187500.0000,187500.0000,187500.0000,29.103638,NaN,NaN,NaN
155549.3594,175280.1406,151259.3438,163776.6094,187500.0000,187500.0000,187500.0000,187500.0000,147737.7344,145556.4375,157235.3281,154497.4688,187500.0000,170092.3594,187500.0000,171165.9375,160647.9063,159226.4531,136010.9219,187500.0000,187500.0000,187500.0000,29.107635,NaN,NaN,NaN
155665.9531,176136.2813,151157.2813,164155.2969,187500.0000,187500.0000,187500.0000,187500.0000,147609.0781,145483.2813,157081.7031,154593.0781,187500.0000,170096.2031,187500.0000,171214.7344,160757.0469,159304.8594,136020.4844,187500.0000,187500.0000,187500.0000,29.111633,NaN,NaN,NaN
155298.1563,173992.8281,151360.3906,163298.2188,187500.0000,187500.0000,187500.0000,187500.0000,147898.4219,145662.6094,157419.8281,154351.9531,187500.0000,170083.5625,187500.0000,171146.5781,160433.1719,159074.9844,136052.7813,187500.0000,187500.0000,187500.0000,29.115631,NaN,NaN,NaN
154891.0625,171563.7813,151590.8281,162287.5156,187500.0000,187500.0000,187500.0000,187500.0000,148221.5938,145849.9063,157803.1094,154066.7188,187500.0000,170060.9688,187500.0000,171029.2656,160069.7969,158810.4531,136041.0938,187500.0000,187500.0000,187500.0000,29.119629,NaN,NaN,NaN
155017.0313,172369.5781,151495.9219,162579.9219,187500.0000,187500.0000,187500.0000,187500.0000,148097.2813,145757.2188,157659.7031,154135.3594,187500.0000,170054.1875,187500.0000,171016.4531,160183.6406,158885.4219,135988.0938,187500.0000,187500.0000,187500.0000,29.123627,NaN,NaN,NaN
155466.0781,175158.8750,151211.9844,163722.9688,187500.0000,187500.0000,187500.0000,187500.0000,147709.3750,145535.8750,157205.2500,154445.5938,187500.0000,170073.0469,187500.0000,171118.1563,160576.8906,159161.5156,135943.7813,187500.0000,187500.0000,187500.0000,29.127625,NaN,NaN,NaN
155590.0156,176042.2813,151111.3594,164114.2969,187500.0000,187500.0000,187500.0000,187500.0000,147580.0469,145478.2188,157051.7344,154546.2344,187500.0000,170083.1094,187500.0000,171175.0781,160686.2188,159239.7656,135951.1875,187500.0000,187500.0000,187500.0000,29.131622,NaN,NaN,NaN
155217.3906,173903.6563,151306.0000,163253.1406,187500.0000,187500.0000,187500.0000,187500.0000,147860.9844,145645.0313,157380.7031,154297.7500,187500.0000,170070.1719,187500.0000,171102.7344,160364.4844,159012.7656,135985.9531,187500.0000,187500.0000,187500.0000,29.135620,NaN,NaN,NaN
154809.7188,171458.6406,151540.5781,162235.2813,187500.0000,187500.0000,187500.0000,187500.0000,148189.5781,145840.5625,157770.0938,154010.7344,187500.0000,170055.9063,187500.0000,170991.0781,160001.6875,158751.0938,135979.8906,187500.0000,187500.0000,187500.0000,29.139618,NaN,NaN,NaN
154940.1250,172246.7656,151457.5156,162524.3281,187500.0000,187500.0000,187500.0000,187500.0000,148076.6406,145774.2031,157641.3906,154082.9531,187500.0000,170059.6406,187500.0000,170989.4531,160113.5469,158826.7344,135930.4688,187500.0000,187500.0000,187500.0000,29.143616,NaN,NaN,NaN
155383.8906,175030.6406,151167.3906,163660.8750,187500.0000,187500.0000,187500.0000,187500.0000,147683.1719,145539.2188,157181.7969,154386.4375,187500.0000,170071.2031,187500.0000,171084.1094,160508.1563,159105.2031,135886.2188,187500.0000,187500.0000,187500.0000,29.147614,NaN,NaN,NaN
155515.1250,175937.5000,151067.5938,164064.5625,187500.0000,187500.0000,187500.0000,187500.0000,147555.3906,145477.1719,157029.2031,154495.2344,187500.0000,170073.8125,187500.0000,171141.6250,160624.2969,159189.1250,135892.5000,187500.0000,187500.0000,187500.0000,29.151611,NaN,NaN,NaN
155151.8594,173821.5469,151265.9375,163219.2969,187500.0000,187500.0000,187500.0000,187500.0000,147838.7500,145647.4688,157361.7031,154261.6250,187500.0000,170048.4688,187500.0000,171070.5469,160304.6563,158961.6719,135919.7188,187500.0000,187500.0000,187500.0000,29.155609,NaN,NaN,NaN
154734.6406,171357.0469,151492.2031,162193.5000,187500.0000,187500.0000,187500.0000,187500.0000,148161.1875,145811.2344,157742.2500,153975.7500,187500.0000,170010.4531,187500.0000,170943.6719,159939.0156,158694.0000,135905.1563,187500.0000,187500.0000,187500.0000,29.159607,NaN,NaN,NaN
154857.0313,172114.1875,151408.2344,162474.3750,187500.0000,187500.0000,187500.0000,187500.0000,148050.8438,145728.8750,157610.9219,154054.1250,187500.0000,169999.0000,187500.0000,170935.9219,160043.7813,158758.4219,135846.7656,187500.0000,187500.0000,187500.0000,29.163605,NaN,NaN,NaN
155304.4063,174901.9219,151123.4219,163620.2188,187500.0000,187500.0000,187500.0000,187500.0000,147662.2813,145500.2188,157151.8438,154375.0156,187500.0000,170012.6875,187500.0000,171038.9219,160435.9844,159029.1250,135798.1563,187500.0000,187500.0000,187500.0000,29.167603,NaN,NaN,NaN
155429.6875,175825.3594,151013.3594,164028.4219,187500.0000,187500.0000,187500.0000,187500.0000,147523.5156,145417.7813,156981.7031,154486.7188,187500.0000,170019.3906,187500.0000,171095.8750,160553.8281,159109.8438,135806.0156,187500.0000,187500.0000,187500.0000,29.171600,NaN,NaN,NaN
155067.2969,173732.1250,151210.4688,163193.0156,187500.0000,187500.0000,187500.0000,187500.0000,147804.8438,145593.4844,157307.6406,154253.7344,187500.0000,170014.4688,187500.0000,171035.5156,160236.1406,158882.5625,135841.4063,187500.0000,187500.0000,187500.0000,29.175598,NaN,NaN,NaN
154654.2813,171264.2188,151447.4375,162165.6406,187500.0000,187500.0000,187500.0000,187500.0000,148135.6406,145794.9063,157699.7969,153961.1719,187500.0000,170005.7500,187500.0000,170925.0156,159868.8594,158617.0625,135838.7656,187500.0000,187500.0000,187500.0000,29.179596,NaN,NaN,NaN
154767.2344,171984.8594,151361.3438,162416.0781,187500.0000,187500.0000,187500.0000,187500.0000,148022.2969,145722.8906,157572.5469,154009.4531,187500.0000,170010.5781,187500.0000,170913.3438,159970.7344,158687.7031,135793.4531,187500.0000,187500.0000,187500.0000,29.183594,NaN,NaN,NaN
155216.1875,174768.0781,151076.0781,163546.1406,187500.0000,187500.0000,187500.0000,187500.0000,147631.8594,145515.5781,157121.5000,154299.4688,187500.0000,170036.7344,187500.0000,171017.1406,160362.8281,158968.3438,135752.8906,187500.0000,187500.0000,187500.0000,29.187592,NaN,NaN,NaN
155354.6250,175715.4219,150970.5781,163955.4531,187500.0000,187500.0000,187500.0000,187500.0000,147494.0625,145465.8906,156965.0469,154390.5781,187500.0000,170053.0469,187500.0000,171080.6406,160484.7188,159061.7188,135765.6719,187500.0000,187500.0000,187500.0000,29.191589,NaN,NaN,NaN
154991.4844,173624.6406,151158.0313,163104.7656,187500.0000,187500.0000,187500.0000,187500.0000,147764.7344,145630.3750,157288.6875,154130.6875,187500.0000,170035.7656,187500.0000,171006.7969,160170.2188,158843.8906,135800.2813,187500.0000,187500.0000,187500.0000,29.195587,NaN,NaN,NaN
154578.4688,171138.8750,151394.1563,162065.2969,187500.0000,187500.0000,187500.0000,187500.0000,148096.1094,145822.6563,157685.4219,153832.7188,187500.0000,170010.3750,187500.0000,170886.4063,159801.0938,158578.7656,135791.3594,187500.0000,187500.0000,187500.0000,29.199585,NaN,NaN,NaN
154690.2500,171835.4844,151314.3125,162316.5469,187500.0000,187500.0000,187500.0000,187500.0000,147990.6094,145749.2656,157565.2344,153896.0313,187500.0000,169996.9219,187500.0000,170872.3594,159896.1875,158638.9375,135732.6875,187500.0000,187500.0000,187500.0000,29.203583,NaN,NaN,NaN
155129.8438,174613.7188,151021.7656,163456.3594,187500.0000,187500.0000,187500.0000,187500.0000,147596.8125,145500.0000,157099.9844,154212.2344,187500.0000,169997.6875,187500.0000,170963.9531,160288.6250,158910.3438,135680.8438,187500.0000,187500.0000,187500.0000,29.207581,NaN,NaN,NaN
155270.5000,175592.9063,150914.7500,163899.1719,187500.0000,187500.0000,187500.0000,187500.0000,147460.6875,145419.6406,156929.3750,154351.3281,187500.0000,170000.0469,187500.0000,171028.2344,160415.0000,158995.7031,135684.1563,187500.0000,187500.0000,187500.0000,29.211578,NaN,NaN,NaN
154914.0313,173533.5469,151108.8281,163087.5313,187500.0000,187500.0000,187500.0000,187500.0000,147738.9063,145580.6094,157246.7031,154146.2031,187500.0000,169985.2500,187500.0000,170969.2500,160103.7344,158769.2188,135714.6250,187500.0000,187500.0000,187500.0000,29.215576,NaN,NaN,NaN
154488.2344,171030.6406,151340.4844,162052.7344,187500.0000,187500.0000,187500.0000,187500.0000,148068.2969,145754.1563,157629.4375,153867.2969,187500.0000,169963.0000,187500.0000,170854.1875,159733.7344,158496.0625,135708.1250,187500.0000,187500.0000,187500.0000,29.219574,NaN,NaN,NaN
154597.8438,171705.4219,151267.1875,162298.9844,187500.0000,187500.0000,187500.0000,187500.0000,147971.0469,145693.9688,157511.9063,153938.3438,187500.0000,169969.1406,187500.0000,170855.6406,159828.7344,158555.5781,135660.0469,187500.0000,187500.0000,187500.0000,29.223572,NaN,NaN,NaN
155046.5313,174491.3438,150982.7656,163435.1875,187500.0000,187500.0000,187500.0000,187500.0000,147581.0156,145480.2813,157054.6563,154246.3438,187500.0000,169992.7500,187500.0000,170961.9844,160221.2969,158831.8750,135617.2813,187500.0000,187500.0000,187500.0000,29.227570,NaN,NaN,NaN
155184.7656,175481.3438,150864.7031,163858.4844,187500.0000,187500.0000,187500.0000,187500.0000,147429.5938,145404.3281,156877.3906,154346.1406,187500.0000,170001.1719,187500.0000,171019.7344,160349.4688,158927.2031,135627.0938,187500.0000,187500.0000,187500.0000,29.231567,NaN,NaN,NaN
154835.7344,173438.1094,151056.7969,163032.3906,187500.0000,187500.0000,187500.0000,187500.0000,147702.7656,145586.7813,157202.7813,154101.7656,187500.0000,169991.0156,187500.0000,170960.7813,160041.9063,158714.5469,135662.9219,187500.0000,187500.0000,187500.0000,29.235565,NaN,NaN,NaN
154421.4531,170926.7188,151297.5469,161979.9844,187500.0000,187500.0000,187500.0000,187500.0000,148038.1250,145795.2813,157608.8438,153796.8750,187500.0000,169969.8281,187500.0000,170845.4219,159671.0000,158451.0000,135658.3438,187500.0000,187500.0000,187500.0000,29.239563,NaN,NaN,NaN
154522.3438,171559.1094,151219.3750,162193.4844,187500.0000,187500.0000,187500.0000,187500.0000,147935.8594,145727.0156,157498.9688,153838.8750,187500.0000,169961.3438,187500.0000,170825.6563,159761.4063,158513.4844,135607.9688,187500.0000,187500.0000,187500.0000,29.243561,NaN,NaN,NaN
154970.5781,174341.0000,150934.3281,163328.3438,187500.0000,187500.0000,187500.0000,187500.0000,147546.8281,145510.0313,157047.4844,154145.8750,187500.0000,169979.5625,187500.0000,170927.1094,160154.1563,158790.8281,135561.7344,187500.0000,187500.0000,187500.0000,29.247559,NaN,NaN,NaN
155117.9063,175358.9063,150822.0156,163776.8438,187500.0000,187500.0000,187500.0000,187500.0000,147400.4063,145439.5781,156874.2344,154267.4844,187500.0000,169992.8750,187500.0000,170995.0469,160284.8906,158883.4375,135568.3750,187500.0000,187500.0000,187500.0000,29.251556,NaN,NaN,NaN
154760.3281,173326.0625,151004.5313,162964.1719,187500.0000,187500.0000,187500.0000,187500.0000,147665.7500,145586.2656,157182.1094,154037.9063,187500.0000,169978.7344,187500.0000,170929.7969,159977.4375,158662.5156,135601.3750,187500.0000,187500.0000,187500.0000,29.255554,NaN,NaN,NaN
154337.2031,170808.3594,151244.3750,161924.6563,187500.0000,187500.0000,187500.0000,187500.0000,148003.7500,145772.7031,157576.9688,153752.8125,187500.0000,169959.0781,187500.0000,170815.6719,159602.3594,158386.6406,135594.2344,187500.0000,187500.0000,187500.0000,29.259552,NaN,NaN,NaN
154434.6406,171424.0000,151174.7656,162148.4688,187500.0000,187500.0000,187500.0000,187500.0000,147913.6094,145704.6406,157466.6094,153817.0781,187500.0000,169956.6406,187500.0000,170807.7344,159687.2344,158437.7344,135542.0313,187500.0000,187500.0000,187500.0000,29.263550,NaN,NaN,NaN
154874.6563,174199.2344,150882.9375,163281.8125,187500.0000,187500.0000,187500.0000,187500.0000,147521.3281,145460.9219,156999.7813,154128.5313,187500.0000,169969.6250,187500.0000,170907.4063,160081.0000,158712.2656,135496.4688,187500.0000,187500.0000,187500.0000,29.267548,NaN,NaN,NaN
155026.3906,175243.5313,150766.4063,163738.9688,187500.0000,187500.0000,187500.0000,187500.0000,147371.7813,145386.8750,156816.6875,154252.5781,187500.0000,169980.6094,187500.0000,170977.8125,160216.4688,158808.9531,135503.4063,187500.0000,187500.0000,187500.0000,29.271545,NaN,NaN,NaN
154683.9844,173239.4063,150955.8750,162935.9688,187500.0000,187500.0000,187500.0000,187500.0000,147641.1719,145564.1250,157131.0156,154025.0313,187500.0000,169972.8125,187500.0000,170924.4844,159916.3594,158599.0156,135540.4844,187500.0000,187500.0000,187500.0000,29.275543,NaN,NaN,NaN
154254.8438,170695.1094,151189.6719,161867.1406,187500.0000,187500.0000,187500.0000,187500.0000,147972.0781,145754.0938,157525.3281,153714.5313,187500.0000,169949.2031,187500.0000,170804.3750,159540.6875,158329.7344,135535.7656,187500.0000,187500.0000,187500.0000,29.279541,NaN,NaN,NaN
154351.1875,171277.3438,151123.2969,162063.7344,187500.0000,187500.0000,187500.0000,187500.0000,147883.4063,145705.0938,157427.0000,153755.8125,187500.0000,169949.6719,187500.0000,170797.2969,159621.8750,158384.7031,135486.3281,187500.0000,187500.0000,187500.0000,29.283539,NaN,NaN,NaN
154801.4531,174056.4531,150841.7031,163196.4063,187500.0000,187500.0000,187500.0000,187500.0000,147496.4219,145494.5625,156978.4844,154061.9844,187500.0000,169971.2188,187500.0000,170903.8750,160016.4531,158664.5469,135443.2500,187500.0000,187500.0000,187500.0000,29.287537,NaN,NaN,NaN
154949.3438,175112.5000,150716.1563,163651.2188,187500.0000,187500.0000,187500.0000,187500.0000,147335.3906,145409.1563,156792.0469,154178.8125,187500.0000,169974.6094,187500.0000,170960.8906,160153.4375,158763.5469,135447.7969,187500.0000,187500.0000,187500.0000,29.291534,NaN,NaN,NaN
154606.3594,173122.5000,150901.0313,162856.3281,187500.0000,187500.0000,187500.0000,187500.0000,147600.0000,145577.3125,157105.3594,153960.0000,187500.0000,169958.7188,187500.0000,170900.0000,159850.8594,158548.8125,135478.0156,187500.0000,187500.0000,187500.0000,29.295532,NaN,NaN,NaN
154606.3594,173122.5000,150901.0313,162856.3281,187500.0000,187500.0000,187500.0000,187500.0000,147600.0000,145577.3125,157105.3594,153960.0000,187500.0000,169958.7188,187500.0000,170900.0000,159850.8594,158548.8125,135478.0156,187500.0000,187500.0000,187500.0000,29.299530,NaN,NaN,NaN
154179.8281,170572.5938,151142.1719,161800.4688,187500.0000,187500.0000,187500.0000,187500.0000,147937.3438,145772.5469,157509.1875,153673.2188,187500.0000,169933.3750,187500.0000,170783.2188,159471.0469,158271.2656,135468.4375,187500.0000,187500.0000,187500.0000,29.303528,NaN,NaN,NaN
154179.8281,170572.5938,151142.1719,161800.4688,187500.0000,187500.0000,187500.0000,187500.0000,147937.3438,145772.5469,157509.1875,153673.2188,187500.0000,169933.3750,187500.0000,170783.2188,159471.0469,158271.2656,135468.4375,187500.0000,187500.0000,187500.0000,29.307526,NaN,NaN,NaN
154262.6563,171120.6563,151071.6094,161991.2500,187500.0000,187500.0000,187500.0000,187500.0000,147847.7969,145695.5000,157405.2969,153728.8750,187500.0000,169924.7500,187500.0000,170766.9219,159547.6406,158316.7969,135415.4219,187500.0000,187500.0000,187500.0000,29.311523,NaN,NaN,NaN
154262.6563,171120.6563,151071.6094,161991.2500,187500.0000,187500.0000,187500.0000,187500.0000,147847.7969,145695.5000,157405.2969,153728.8750,187500.0000,169924.7500,187500.0000,170766.9219,159547.6406,158316.7969,135415.4219,187500.0000,187500.0000,187500.0000,29.315521,NaN,NaN,NaN
154712.6406,173905.7031,150789.9531,163134.9219,187500.0000,187500.0000,187500.0000,187500.0000,147463.8594,145469.6250,156949.3125,154055.7344,187500.0000,169945.6719,187500.0000,170876.3281,159943.5781,158591.8750,135370.2969,187500.0000,187500.0000,187500.0000,29.319519,NaN,NaN,NaN
154871.6719,174998.0156,150669.9531,163614.9375,187500.0000,187500.0000,187500.0000,187500.0000,147308.4531,145387.6719,156758.0156,154192.8125,187500.0000,169957.1563,187500.0000,170949.0156,160085.9531,158690.2656,135375.6094,187500.0000,187500.0000,187500.0000,29.323517,NaN,NaN,NaN
154871.6719,174998.0156,150669.9531,163614.9375,187500.0000,187500.0000,187500.0000,187500.0000,147308.4531,145387.6719,156758.0156,154192.8125,187500.0000,169957.1563,187500.0000,170949.0156,160085.9531,158690.2656,135375.6094,187500.0000,187500.0000,187500.0000,29.327515,NaN,NaN,NaN
154521.7344,173021.3125,150843.7813,162821.7500,187500.0000,187500.0000,187500.0000,187500.0000,147563.4844,145527.0156,157049.7031,153964.6719,187500.0000,169937.7344,187500.0000,170887.2656,159785.7031,158474.0156,135406.2813,187500.0000,187500.0000,187500.0000,29.331512,NaN,NaN,NaN
154096.2969,170469.4219,151088.3125,161762.3125,187500.0000,187500.0000,187500.0000,187500.0000,147906.6719,145721.4063,157450.0000,153665.3594,187500.0000,169917.9375,187500.0000,170778.3906,159408.9063,158200.0156,135403.0156,187500.0000,187500.0000,187500.0000,29.335510,NaN,NaN,NaN
154096.2969,170469.4219,151088.3125,161762.3125,187500.0000,187500.0000,187500.0000,187500.0000,147906.6719,145721.4063,157450.0000,153665.3594,187500.0000,169917.9375,187500.0000,170778.3906,159408.9063,158200.0156,135403.0156,187500.0000,187500.0000,187500.0000,29.339508,NaN,NaN,NaN
154182.9375,171000.5625,151026.5938,161941.1094,187500.0000,187500.0000,187500.0000,187500.0000,147825.9844,145668.2344,157354.7813,153703.3125,187500.0000,169916.7188,187500.0000,170768.8594,159482.9844,158247.5938,135354.1875,187500.0000,187500.0000,187500.0000,29.343506,NaN,NaN,NaN
154182.9375,171000.5625,151026.5938,161941.1094,187500.0000,187500.0000,187500.0000,187500.0000,147825.9844,145668.2344,157354.7813,153703.3125,187500.0000,169916.7188,187500.0000,170768.8594,159482.9844,158247.5938,135354.1875,187500.0000,187500.0000,187500.0000,29.347504,NaN,NaN,NaN
154623.4219,173769.0000,150733.9219,163061.9375,187500.0000,187500.0000,187500.0000,187500.0000,147431.3125,145436.2656,156892.3125,153995.5625,187500.0000,169933.0156,187500.0000,170865.8438,159875.7344,158525.8906,135310.2813,187500.0000,187500.0000,187500.0000,29.351501,NaN,NaN,NaN
154789.0469,174880.3281,150613.0469,163541.5469,187500.0000,187500.0000,187500.0000,187500.0000,147273.5156,145371.4063,156706.8750,154113.9688,187500.0000,169951.1875,187500.0000,170940.8594,160023.0781,158635.4688,135320.7656,187500.0000,187500.0000,187500.0000,29.355499,NaN,NaN,NaN
154789.0469,174880.3281,150613.0469,163541.5469,187500.0000,187500.0000,187500.0000,187500.0000,147273.5156,145371.4063,156706.8750,154113.9688,187500.0000,169951.1875,187500.0000,170940.8594,160023.0781,158635.4688,135320.7656,187500.0000,187500.0000,187500.0000,29.359497,NaN,NaN,NaN
154454.7500,172929.7031,150796.3125,162756.5469,187500.0000,187500.0000,187500.0000,187500.0000,147533.4844,145547.4219,157017.2188,153884.0625,187500.0000,169944.7344,187500.0000,170889.6094,159729.4531,158432.1094,135357.9531,187500.0000,187500.0000,187500.0000,29.363495,NaN,NaN,NaN
154021.0625,170353.3906,151034.7031,161677.0000,187500.0000,187500.0000,187500.0000,187500.0000,147868.9063,145735.5781,157422.0938,153573.2031,187500.0000,169918.7969,187500.0000,170766.6563,159349.3281,158160.4531,135354.4063,187500.0000,187500.0000,187500.0000,29.367493,NaN,NaN,NaN
154100.1406,170845.8281,150975.2969,161840.5938,187500.0000,187500.0000,187500.0000,187500.0000,147790.1250,145683.2969,157337.4063,153613.2500,187500.0000,169911.4531,187500.0000,170748.5313,159415.7031,158203.0313,135301.6094,187500.0000,187500.0000,187500.0000,29.371490,NaN,NaN,NaN
154547.9844,173617.9219,150693.7188,162974.5156,187500.0000,187500.0000,187500.0000,187500.0000,147404.5938,145466.2500,156888.1406,153932.2344,187500.0000,169928.9688,187500.0000,170852.1719,159809.2500,158479.4688,135255.4688,187500.0000,187500.0000,187500.0000,29.375488,NaN,NaN,NaN
154547.9844,173617.9219,150693.7188,162974.5156,187500.0000,187500.0000,187500.0000,187500.0000,147404.5938,145466.2500,156888.1406,153932.2344,187500.0000,169928.9688,187500.0000,170852.1719,159809.2500,158479.4688,135255.4688,187500.0000,187500.0000,187500.0000,29.379486,NaN,NaN,NaN
154708.7813,174747.4531,150562.4219,163464.8438,187500.0000,187500.0000,187500.0000,187500.0000,147236.4375,145371.5781,156687.8750,154070.0625,187500.0000,169934.9219,187500.0000,170916.9688,159958.4844,158584.4531,135259.7656,187500.0000,187500.0000,187500.0000,29.383484,NaN,NaN,NaN
154376.2344,172819.7188,150742.5469,162700.0469,187500.0000,187500.0000,187500.0000,187500.0000,147494.4688,145532.5313,156987.4063,153866.0781,187500.0000,169926.0625,187500.0000,170866.3594,159666.7500,158375.2188,135293.0938,187500.0000,187500.0000,187500.0000,29.387482,NaN,NaN,NaN
154376.2344,172819.7188,150742.5469,162700.0469,187500.0000,187500.0000,187500.0000,187500.0000,147494.4688,145532.5313,156987.4063,153866.0781,187500.0000,169926.0625,187500.0000,170866.3594,159666.7500,158375.2188,135293.0938,187500.0000,187500.0000,187500.0000,29.391479,NaN,NaN,NaN
153943.9844,170238.0781,150987.2969,161631.3125,187500.0000,187500.0000,187500.0000,187500.0000,147837.2188,145730.4375,157391.0156,153575.0156,187500.0000,169908.3438,187500.0000,170754.4844,159282.4219,158093.2500,135287.5938,187500.0000,187500.0000,187500.0000,29.395477,NaN,NaN,NaN
154460.7188,173478.3125,150641.1875,162915.6719,187500.0000,187500.0000,187500.0000,187500.0000,147372.9531,145446.2813,156837.1719,153922.4688,187500.0000,169930.8125,187500.0000,170847.5938,159741.5625,158407.4531,135195.6094,187500.0000,187500.0000,187500.0000,29.399475,NaN,NaN,NaN
153867.2344,170128.5313,150933.4063,161564.9063,187500.0000,187500.0000,187500.0000,187500.0000,147802.6406,145715.5469,157340.9375,153527.7188,187500.0000,169902.8281,187500.0000,170749.4375,159224.9219,158041.8281,135233.8125,187500.0000,187500.0000,187500.0000,29.403473,NaN,NaN,NaN
154379.1719,173330.3281,150590.2031,162829.9688,187500.0000,187500.0000,187500.0000,187500.0000,147341.0781,145435.8281,156808.5469,153865.3750,187500.0000,169907.5156,187500.0000,170833.9375,159679.2031,158358.1875,135135.9844,187500.0000,187500.0000,187500.0000,29.407471,NaN,NaN,NaN
154552.7656,174511.0000,150460.0469,163343.0313,187500.0000,187500.0000,187500.0000,187500.0000,147171.7656,145351.3281,156607.8438,154006.8281,187500.0000,169917.1719,187500.0000,170906.9063,159833.8125,158467.5781,135138.1875,187500.0000,187500.0000,187500.0000,29.411469,NaN,NaN,NaN
154224.4375,172618.6719,150635.5156,162590.7344,187500.0000,187500.0000,187500.0000,187500.0000,147422.6875,145506.3906,156901.8906,153798.7344,187500.0000,169904.9063,187500.0000,170855.0469,159546.0938,158262.2188,135170.0625,187500.0000,187500.0000,187500.0000,29.415466,NaN,NaN,NaN
153782.4063,170009.7500,150876.1250,161506.1875,187500.0000,187500.0000,187500.0000,187500.0000,147763.1094,145686.1094,157304.2656,153494.1875,187500.0000,169878.8438,187500.0000,170733.2188,159159.6094,157980.4219,135165.8438,187500.0000,187500.0000,187500.0000,29.419464,NaN,NaN,NaN
153849.7344,170425.7344,150826.1406,161641.6875,187500.0000,187500.0000,187500.0000,187500.0000,147698.4375,145639.3750,157227.0000,153529.2500,187500.0000,169878.7344,187500.0000,170720.0313,159216.4844,158013.0625,135117.2031,187500.0000,187500.0000,187500.0000,29.423462,NaN,NaN,NaN
154468.9063,174391.1719,150404.0313,163279.3906,187500.0000,187500.0000,187500.0000,187500.0000,147133.7344,145330.1250,156556.3906,153969.1875,187500.0000,169917.5313,187500.0000,170899.1094,159768.4063,158402.3594,135080.4219,187500.0000,187500.0000,187500.0000,29.427460,NaN,NaN,NaN
153714.8438,169911.3438,150827.6250,161439.5781,187500.0000,187500.0000,187500.0000,187500.0000,147729.5156,145700.9844,157260.9219,153446.5781,187500.0000,169890.8906,187500.0000,170741.2969,159101.2813,157928.3906,135115.8281,187500.0000,187500.0000,187500.0000,29.431458,NaN,NaN,NaN
153769.7969,170283.1094,150772.1875,161546.7969,187500.0000,187500.0000,187500.0000,187500.0000,147660.6719,145644.3906,157185.3906,153464.1250,187500.0000,169879.2656,187500.0000,170716.4531,159152.4219,157960.2344,135065.1094,187500.0000,187500.0000,187500.0000,29.435455,NaN,NaN,NaN
154215.2813,173043.9063,150489.1875,162671.7031,187500.0000,187500.0000,187500.0000,187500.0000,147275.0156,145426.4375,156735.0781,153774.2500,187500.0000,169896.0000,187500.0000,170819.8750,159543.6875,158235.9063,135017.6250,187500.0000,187500.0000,187500.0000,29.439453,NaN,NaN,NaN
154070.6563,172410.3281,150522.1875,162461.5469,187500.0000,187500.0000,187500.0000,187500.0000,147340.5781,145480.1406,156812.2500,153718.6250,187500.0000,169892.9219,187500.0000,170840.3594,159425.9531,158152.5625,135054.5781,187500.0000,187500.0000,187500.0000,29.443451,NaN,NaN,NaN
153631.7813,169787.2500,150772.0781,161378.1094,187500.0000,187500.0000,187500.0000,187500.0000,147690.2813,145678.7344,157226.8438,153424.1094,187500.0000,169871.2188,187500.0000,170725.7031,159036.8594,157868.5625,135050.5313,187500.0000,187500.0000,187500.0000,29.447449,NaN,NaN,NaN
153689.7813,170146.6563,150729.1875,161494.6094,187500.0000,187500.0000,187500.0000,187500.0000,147633.9531,145637.6875,157161.9688,153461.6250,187500.0000,169869.3594,187500.0000,170711.3750,159087.2188,157896.5781,135002.5000,187500.0000,187500.0000,187500.0000,29.451447,NaN,NaN,NaN
154129.2188,172904.5469,150439.9688,162616.0938,187500.0000,187500.0000,187500.0000,187500.0000,147243.7656,145401.0625,156700.5625,153771.9063,187500.0000,169885.1250,187500.0000,170810.7031,159480.7656,158171.6406,134956.5469,187500.0000,187500.0000,187500.0000,29.455444,NaN,NaN,NaN
154317.7344,174156.6563,150305.4844,163157.4063,187500.0000,187500.0000,187500.0000,187500.0000,147068.3906,145313.5781,156487.3438,153923.0625,187500.0000,169901.5938,187500.0000,170891.9375,159648.8750,158291.7656,134962.7813,187500.0000,187500.0000,187500.0000,29.459442,NaN,NaN,NaN
153559.0000,169688.8906,150720.2500,161321.7188,187500.0000,187500.0000,187500.0000,187500.0000,147656.3594,145659.4219,157177.9063,153396.9063,187500.0000,169867.9844,187500.0000,170728.2969,158984.2813,157817.7031,134998.3438,187500.0000,187500.0000,187500.0000,29.463440,NaN,NaN,NaN
153611.5781,170015.2813,150676.2500,161411.7813,187500.0000,187500.0000,187500.0000,187500.0000,147600.3594,145622.7656,157114.6563,153408.2188,187500.0000,169863.8906,187500.0000,170711.0625,159027.5000,157843.6563,134948.8906,187500.0000,187500.0000,187500.0000,29.467438,NaN,NaN,NaN
154056.7813,172771.3281,150393.2656,162530.1875,187500.0000,187500.0000,187500.0000,187500.0000,147214.0625,145408.3594,156663.1094,153708.3750,187500.0000,169884.2031,187500.0000,170815.8906,159418.4063,158119.5625,134902.6719,187500.0000,187500.0000,187500.0000,29.471436,NaN,NaN,NaN
154240.6875,174036.2344,150247.9219,163069.9219,187500.0000,187500.0000,187500.0000,187500.0000,147025.6406,145305.7344,156441.3438,153847.1406,187500.0000,169893.3906,187500.0000,170887.4375,159588.0469,158241.7656,134906.8750,187500.0000,187500.0000,187500.0000,29.475433,NaN,NaN,NaN
153925.4844,172223.2969,150413.5156,162346.1250,187500.0000,187500.0000,187500.0000,187500.0000,147263.9219,145456.5156,156722.6875,153643.1875,187500.0000,169881.2500,187500.0000,170839.3438,159311.4531,158045.8750,134938.5469,187500.0000,187500.0000,187500.0000,29.479431,NaN,NaN,NaN
153486.6563,169582.1406,150667.4688,161253.7500,187500.0000,187500.0000,187500.0000,187500.0000,147616.9688,145662.3750,157144.4688,153343.8906,187500.0000,169860.6250,187500.0000,170726.2344,158921.9219,157764.0625,134937.8594,187500.0000,187500.0000,187500.0000,29.483429,NaN,NaN,NaN
153526.4375,169868.8750,150621.9844,161334.1250,187500.0000,187500.0000,187500.0000,187500.0000,147561.2031,145608.6250,157082.7813,153363.3750,187500.0000,169850.9063,187500.0000,170699.4688,158961.6719,157785.4063,134888.7656,187500.0000,187500.0000,187500.0000,29.487427,NaN,NaN,NaN
154167.2188,173923.9219,150202.7344,163021.8906,187500.0000,187500.0000,187500.0000,187500.0000,146995.9688,145300.4531,156412.8750,153842.3594,187500.0000,169888.7813,187500.0000,170889.3438,159528.6563,158184.1563,134847.0625,187500.0000,187500.0000,187500.0000,29.491425,NaN,NaN,NaN
153853.5625,172128.8750,150364.8906,162305.1250,187500.0000,187500.0000,187500.0000,187500.0000,147230.8906,145438.6406,156685.0938,153641.3906,187500.0000,169878.6094,187500.0000,170841.1719,159261.1875,157995.9844,134885.8906,187500.0000,187500.0000,187500.0000,29.495422,NaN,NaN,NaN
153412.0156,169480.6406,150616.3125,161204.4688,187500.0000,187500.0000,187500.0000,187500.0000,147583.1719,145644.8125,157101.0781,153333.1563,187500.0000,169858.4844,187500.0000,170728.6094,158869.1719,157712.5469,134885.0625,187500.0000,187500.0000,187500.0000,29.499420,NaN,NaN,NaN
153454.6250,169746.7188,150578.9375,161271.7031,187500.0000,187500.0000,187500.0000,187500.0000,147534.8906,145614.2813,157046.5469,153342.2969,187500.0000,169854.6563,187500.0000,170708.9688,158903.6406,157731.5313,134836.5156,187500.0000,187500.0000,187500.0000,29.503418,NaN,NaN,NaN
153892.8438,172488.0938,150290.6875,162378.5781,187500.0000,187500.0000,187500.0000,187500.0000,147144.7500,145384.5625,156588.4219,153636.5938,187500.0000,169871.6875,187500.0000,170807.3750,159294.7031,158007.8438,134791.4688,187500.0000,187500.0000,187500.0000,29.507416,NaN,NaN,NaN
154092.0000,173806.8281,150148.1250,162942.5313,187500.0000,187500.0000,187500.0000,187500.0000,146957.4375,145295.3906,156366.0000,153785.5781,187500.0000,169888.9844,187500.0000,170890.8438,159471.7344,158135.6875,134796.0781,187500.0000,187500.0000,187500.0000,29.511414,NaN,NaN,NaN
153788.2813,172038.3594,150314.0938,162236.4375,187500.0000,187500.0000,187500.0000,187500.0000,147193.5156,145448.7813,156644.3125,153584.8281,187500.0000,169882.6563,187500.0000,170850.2188,159205.5000,157949.3594,134833.1094,187500.0000,187500.0000,187500.0000,29.515411,NaN,NaN,NaN
153339.6250,169370.1094,150562.0156,161124.4219,187500.0000,187500.0000,187500.0000,187500.0000,147542.2656,145638.3125,157061.2500,153270.2500,187500.0000,169856.1719,187500.0000,170729.5313,158813.1563,157666.4688,134833.3125,187500.0000,187500.0000,187500.0000,29.519409,NaN,NaN,NaN
153379.9844,169611.6406,150531.0313,161189.5156,187500.0000,187500.0000,187500.0000,187500.0000,147502.7031,145606.5469,157018.7656,153288.9531,187500.0000,169852.3125,187500.0000,170711.0781,158846.8438,157684.3125,134786.1250,187500.0000,187500.0000,187500.0000,29.523407,NaN,NaN,NaN
153821.2969,172357.0469,150248.7188,162309.2500,187500.0000,187500.0000,187500.0000,187500.0000,147117.7969,145384.2344,156567.9219,153601.8281,187500.0000,169867.9844,187500.0000,170812.9688,159235.2344,157954.8750,134735.6563,187500.0000,187500.0000,187500.0000,29.527405,NaN,NaN,NaN
154011.5625,173685.5938,150093.7188,162878.0781,187500.0000,187500.0000,187500.0000,187500.0000,146918.6094,145265.5000,156330.1719,153758.1094,187500.0000,169872.7188,187500.0000,170883.8594,159411.0313,158077.2969,134733.7031,187500.0000,187500.0000,187500.0000,29.531403,NaN,NaN,NaN
153709.5000,171936.4531,150258.3906,162187.6094,187500.0000,187500.0000,187500.0000,187500.0000,147154.9688,145411.9688,156603.0938,153573.7188,187500.0000,169866.6094,187500.0000,170845.5469,159147.5000,157889.9219,134770.2031,187500.0000,187500.0000,187500.0000,29.535400,NaN,NaN,NaN
153267.2031,169272.4219,150515.9219,161087.8125,187500.0000,187500.0000,187500.0000,187500.0000,147513.3281,145620.9688,157025.7656,153273.8594,187500.0000,169849.7344,187500.0000,170737.1250,158756.1406,157606.0625,134773.3750,187500.0000,187500.0000,187500.0000,29.539398,NaN,NaN,NaN
153294.0938,169476.0000,150478.4375,161129.5625,187500.0000,187500.0000,187500.0000,187500.0000,147469.4219,145576.1875,156973.4063,153277.7500,187500.0000,169841.7969,187500.0000,170710.0625,158784.1094,157618.9688,134726.6094,187500.0000,187500.0000,187500.0000,29.543396,NaN,NaN,NaN
153739.7813,172221.2813,150198.8281,162243.9063,187500.0000,187500.0000,187500.0000,187500.0000,147088.1719,145362.0156,156522.3594,153584.1719,187500.0000,169864.2031,187500.0000,170817.1406,159176.0156,157894.7969,134681.7969,187500.0000,187500.0000,187500.0000,29.547394,NaN,NaN,NaN
153739.7813,172221.2813,150198.8281,162243.9063,187500.0000,187500.0000,187500.0000,187500.0000,147088.1719,145362.0156,156522.3594,153584.1719,187500.0000,169864.2031,187500.0000,170817.1406,159176.0156,157894.7969,134681.7969,187500.0000,187500.0000,187500.0000,29.551392,NaN,NaN,NaN
153945.2031,173581.2656,150049.6875,162817.7500,187500.0000,187500.0000,187500.0000,187500.0000,146885.5625,145264.2344,156285.6875,153735.2500,187500.0000,169873.5938,187500.0000,170891.9063,159348.1719,158017.7969,134672.2500,187500.0000,187500.0000,187500.0000,29.555389,NaN,NaN,NaN
153945.2031,173581.2656,150049.6875,162817.7500,187500.0000,187500.0000,187500.0000,187500.0000,146885.5625,145264.2344,156285.6875,153735.2500,187500.0000,169873.5938,187500.0000,170891.9063,159348.1719,158017.7969,134672.2500,187500.0000,187500.0000,187500.0000,29.559387,NaN,NaN,NaN
153639.0313,171840.4531,150200.2031,162105.5469,187500.0000,187500.0000,187500.0000,187500.0000,147095.8125,145388.8594,156540.0313,153522.8125,187500.0000,169850.4375,187500.0000,170827.9688,159068.3281,157820.6250,134686.8281,187500.0000,187500.0000,187500.0000,29.563385,NaN,NaN,NaN
153639.0313,171840.4531,150200.2031,162105.5469,187500.0000,187500.0000,187500.0000,187500.0000,147095.8125,145388.8594,156540.0313,153522.8125,187500.0000,169850.4375,187500.0000,170827.9688,159068.3281,157820.6250,134686.8281,187500.0000,187500.0000,187500.0000,29.567383,NaN,NaN,NaN
153194.8906,169162.3281,150455.8281,160989.8438,187500.0000,187500.0000,187500.0000,187500.0000,147451.3281,145599.3906,156965.0156,153209.0469,187500.0000,169828.2344,187500.0000,170713.0938,158671.5469,157535.6094,134685.8594,187500.0000,187500.0000,187500.0000,29.571381,NaN,NaN,NaN
153226.4844,169343.1094,150430.6563,161025.7813,187500.0000,187500.0000,187500.0000,187500.0000,147418.3125,145578.7188,156932.5781,153215.7500,187500.0000,169824.9531,187500.0000,170692.5625,158696.7969,157549.3906,134640.5938,187500.0000,187500.0000,187500.0000,29.575378,NaN,NaN,NaN
153226.4844,169343.1094,150430.6563,161025.7813,187500.0000,187500.0000,187500.0000,187500.0000,147418.3125,145578.7188,156932.5781,153215.7500,187500.0000,169824.9531,187500.0000,170692.5625,158696.7969,157549.3906,134640.5938,187500.0000,187500.0000,187500.0000,29.579376,NaN,NaN,NaN
153662.4219,172071.7500,150144.8906,162131.5313,187500.0000,187500.0000,187500.0000,187500.0000,147031.1719,145347.4375,156480.5625,153518.0156,187500.0000,169840.4219,187500.0000,170789.7031,159086.6563,157824.1875,134594.2813,187500.0000,187500.0000,187500.0000,29.583374,NaN,NaN,NaN
153869.6563,173452.8125,149995.7188,162725.5938,187500.0000,187500.0000,187500.0000,187500.0000,146834.6406,145247.4219,156247.7031,153684.5313,187500.0000,169855.4219,187500.0000,170873.0469,159271.4375,157955.5469,134595.4219,187500.0000,187500.0000,187500.0000,29.587372,NaN,NaN,NaN
153869.6563,173452.8125,149995.7188,162725.5938,187500.0000,187500.0000,187500.0000,187500.0000,146834.6406,145247.4219,156247.7031,153684.5313,187500.0000,169855.4219,187500.0000,170873.0469,159271.4375,157955.5469,134595.4219,187500.0000,187500.0000,187500.0000,29.591370,NaN,NaN,NaN
153571.8125,171740.3438,150154.2344,162048.3281,187500.0000,187500.0000,187500.0000,187500.0000,147061.7813,145391.1406,156513.9063,153500.0000,187500.0000,169847.9063,187500.0000,170833.2344,159011.3281,157770.9219,134630.0938,187500.0000,187500.0000,187500.0000,29.595367,NaN,NaN,NaN
153116.1094,169047.5313,150403.0469,160931.5000,187500.0000,187500.0000,187500.0000,187500.0000,147413.2813,145580.2813,156930.8750,153188.9219,187500.0000,169822.2500,187500.0000,170712.6250,158613.8438,157482.2969,134630.6250,187500.0000,187500.0000,187500.0000,29.599365,NaN,NaN,NaN
153116.1094,169047.5313,150403.0469,160931.5000,187500.0000,187500.0000,187500.0000,187500.0000,147413.2813,145580.2813,156930.8750,153188.9219,187500.0000,169822.2500,187500.0000,170712.6250,158613.8438,157482.2969,134630.6250,187500.0000,187500.0000,187500.0000,29.603363,NaN,NaN,NaN
153140.1406,169201.6563,150378.6250,160959.7813,187500.0000,187500.0000,187500.0000,187500.0000,147384.2500,145554.0625,156896.4844,153196.3281,187500.0000,169819.1875,187500.0000,170691.0625,158633.7031,157489.2031,134584.3125,187500.0000,187500.0000,187500.0000,29.607361,NaN,NaN,NaN
153582.3438,171934.3125,150099.8438,162070.1719,187500.0000,187500.0000,187500.0000,187500.0000,147004.2031,145338.4063,156447.1406,153503.8438,187500.0000,169841.3594,187500.0000,170796.9375,159023.4531,157762.2656,134538.1875,187500.0000,187500.0000,187500.0000,29.611359,NaN,NaN,NaN
153788.1563,173333.1719,149941.0625,162663.1406,187500.0000,187500.0000,187500.0000,187500.0000,146797.9531,145222.1563,156199.2188,153660.1719,187500.0000,169852.2813,187500.0000,170875.6094,159213.0781,157897.5938,134540.5781,187500.0000,187500.0000,187500.0000,29.615356,NaN,NaN,NaN
153497.6719,171646.6094,150098.5781,161991.3594,187500.0000,187500.0000,187500.0000,187500.0000,147024.0938,145367.8906,156460.8125,153470.4531,187500.0000,169846.3438,187500.0000,170840.3281,158959.3594,157719.6250,134578.1563,187500.0000,187500.0000,187500.0000,29.619354,NaN,NaN,NaN
153050.5000,168952.2969,150356.3281,160871.5156,187500.0000,187500.0000,187500.0000,187500.0000,147383.3594,145579.7969,156887.4688,153156.6719,187500.0000,169824.6563,187500.0000,170727.9375,158562.1094,157433.5000,134580.1406,187500.0000,187500.0000,187500.0000,29.623352,NaN,NaN,NaN
153062.4844,169066.4844,150325.4375,160872.5000,187500.0000,187500.0000,187500.0000,187500.0000,147348.5469,145540.4219,156850.7188,153145.6250,187500.0000,169811.0469,187500.0000,170693.5781,158575.8594,157437.4844,134531.5938,187500.0000,187500.0000,187500.0000,29.627350,NaN,NaN,NaN
153062.4844,169066.4844,150325.4375,160872.5000,187500.0000,187500.0000,187500.0000,187500.0000,147348.5469,145540.4219,156850.7188,153145.6250,187500.0000,169811.0469,187500.0000,170693.5781,158575.8594,157437.4844,134531.5938,187500.0000,187500.0000,187500.0000,29.631348,NaN,NaN,NaN
153504.9844,171795.2969,150046.9375,161980.2031,187500.0000,187500.0000,187500.0000,187500.0000,146968.5313,145324.6250,156405.6094,153451.5156,187500.0000,169830.7656,187500.0000,170797.6719,158964.7813,157711.1250,134484.5000,187500.0000,187500.0000,187500.0000,29.635345,NaN,NaN,NaN
153720.7344,173220.0469,149893.8281,162590.2344,187500.0000,187500.0000,187500.0000,187500.0000,146764.8594,145223.7188,156166.2656,153620.6563,187500.0000,169845.8281,187500.0000,170883.1250,159156.2188,157847.4531,134485.1406,187500.0000,187500.0000,187500.0000,29.639343,NaN,NaN,NaN
153424.4844,171540.2656,150042.7813,161920.7031,187500.0000,187500.0000,187500.0000,187500.0000,146981.7656,145350.6563,156421.2813,153432.7344,187500.0000,169834.9219,187500.0000,170839.0938,158903.3750,157669.0000,134521.6719,187500.0000,187500.0000,187500.0000,29.643341,NaN,NaN,NaN
152989.6563,168933.3125,150284.0000,160808.7188,187500.0000,187500.0000,187500.0000,187500.0000,147321.3281,145541.2813,156827.6719,153126.7188,187500.0000,169810.8281,187500.0000,170701.9844,158515.9688,157381.9375,134478.6250,187500.0000,187500.0000,187500.0000,29.647339,NaN,NaN,NaN
153354.5469,171445.2656,149993.7969,161869.7188,187500.0000,187500.0000,187500.0000,187500.0000,146949.7031,145351.1094,156380.0156,153411.6250,187500.0000,169838.4063,187500.0000,170853.0625,158849.9531,157619.0938,134470.6094,187500.0000,187500.0000,187500.0000,29.651337,NaN,NaN,NaN
152895.6563,168725.9531,150244.8438,160735.7656,187500.0000,187500.0000,187500.0000,187500.0000,147304.1094,145548.8750,156799.4063,153086.8750,187500.0000,169814.1250,187500.0000,170734.2188,158449.9063,157331.5469,134474.8125,187500.0000,187500.0000,187500.0000,29.655334,NaN,NaN,NaN
153346.0156,171506.6719,149950.3750,161820.4844,187500.0000,187500.0000,187500.0000,187500.0000,146905.1875,145320.3906,156333.2656,153375.1406,187500.0000,169830.1406,187500.0000,170812.5625,158843.8750,157604.2500,134383.0156,187500.0000,187500.0000,187500.0000,29.659332,NaN,NaN,NaN
153563.8281,172967.7656,149787.2656,162439.7813,187500.0000,187500.0000,187500.0000,187500.0000,146692.0313,145201.0156,156080.9219,153541.4844,187500.0000,169841.7969,187500.0000,170893.3594,159043.3906,157747.6094,134385.0938,187500.0000,187500.0000,187500.0000,29.663330,NaN,NaN,NaN
152827.3906,168617.0469,150196.2031,160666.0938,187500.0000,187500.0000,187500.0000,187500.0000,147269.5000,145550.5469,156766.5938,153052.3125,187500.0000,169812.2500,187500.0000,170743.6719,158393.4844,157282.0938,134422.1406,187500.0000,187500.0000,187500.0000,29.667328,NaN,NaN,NaN
152825.7500,168643.3438,150177.3594,160637.1250,187500.0000,187500.0000,187500.0000,187500.0000,147249.8750,145518.5625,156747.7031,153040.3125,187500.0000,169802.9531,187500.0000,170709.4531,158396.0938,157277.0625,134377.1875,187500.0000,187500.0000,187500.0000,29.671326,NaN,NaN,NaN
153487.8125,172840.8438,149739.7188,162374.2031,187500.0000,187500.0000,187500.0000,187500.0000,146660.0469,145191.9375,156050.1094,153524.5000,187500.0000,169838.7656,187500.0000,170900.4531,158981.7813,157687.8594,134327.7500,187500.0000,187500.0000,187500.0000,29.675323,NaN,NaN,NaN
153205.3125,171230.2656,149885.3125,161735.3438,187500.0000,187500.0000,187500.0000,187500.0000,146872.4375,145316.8281,156295.0625,153346.8906,187500.0000,169831.4688,187500.0000,170864.6563,158742.7500,157520.3438,134368.5313,187500.0000,187500.0000,187500.0000,29.679321,NaN,NaN,NaN
152754.6250,168508.3906,150148.9531,160610.5625,187500.0000,187500.0000,187500.0000,187500.0000,147240.0781,145532.2969,156727.8750,153037.0469,187500.0000,169814.2188,187500.0000,170756.6563,158344.2969,157233.3594,134376.0469,187500.0000,187500.0000,187500.0000,29.683319,NaN,NaN,NaN
153182.4844,171208.3438,149850.5313,161658.1406,187500.0000,187500.0000,187500.0000,187500.0000,146842.4375,145287.9219,156259.4375,153312.8281,187500.0000,169821.0313,187500.0000,170822.8438,158724.8438,157493.6875,134280.4063,187500.0000,187500.0000,187500.0000,29.687317,NaN,NaN,NaN
153412.3281,172717.0469,149688.5313,162299.8750,187500.0000,187500.0000,187500.0000,187500.0000,146628.6250,145181.3281,156003.5000,153488.2188,187500.0000,169838.5781,187500.0000,170914.0156,158929.4844,157640.0156,134281.0781,187500.0000,187500.0000,187500.0000,29.691315,NaN,NaN,NaN
153133.7813,171124.7031,149833.2344,161666.7188,187500.0000,187500.0000,187500.0000,187500.0000,146837.1875,145318.0938,156247.4219,153309.5781,187500.0000,169830.5000,187500.0000,170879.9531,158686.4063,157468.9063,134315.9375,187500.0000,187500.0000,187500.0000,29.695313,NaN,NaN,NaN
152672.4375,168382.7500,150088.3594,160527.1094,187500.0000,187500.0000,187500.0000,187500.0000,147196.6094,145515.4375,156674.6875,152989.6563,187500.0000,169803.9219,187500.0000,170759.6094,158283.9375,157178.9375,134321.1875,187500.0000,187500.0000,187500.0000,29.699310,NaN,NaN,NaN
152668.3594,168356.8594,150082.0313,160479.7344,187500.0000,187500.0000,187500.0000,187500.0000,147191.7344,145504.4688,156672.1094,152976.0938,187500.0000,169797.0156,187500.0000,170729.8594,158278.0156,157168.7188,134276.2656,187500.0000,187500.0000,187500.0000,29.703308,NaN,NaN,NaN
153102.3125,171046.5469,149805.1563,161569.9844,187500.0000,187500.0000,187500.0000,187500.0000,146814.5938,145289.4375,156230.6875,153279.2656,187500.0000,169814.4375,187500.0000,170829.1719,158659.8906,157436.1563,134226.4219,187500.0000,187500.0000,187500.0000,29.707306,NaN,NaN,NaN
153327.1875,172568.8281,149633.0625,162214.3125,187500.0000,187500.0000,187500.0000,187500.0000,146590.6250,145162.7500,155965.0781,153454.2031,187500.0000,169825.4844,187500.0000,170910.6250,158866.6094,157583.1719,134225.5313,187500.0000,187500.0000,187500.0000,29.711304,NaN,NaN,NaN
153052.2969,171000.9688,149775.7031,161593.9219,187500.0000,187500.0000,187500.0000,187500.0000,146797.2500,145296.9219,156205.2500,153281.5781,187500.0000,169819.7813,187500.0000,170879.3281,158627.2813,157414.3438,134261.2031,187500.0000,187500.0000,187500.0000,29.715302,NaN,NaN,NaN
152597.2813,168259.2969,150040.3906,160461.4063,187500.0000,187500.0000,187500.0000,187500.0000,147165.7969,145515.9688,156641.3594,152969.2813,187500.0000,169804.2500,187500.0000,170771.7656,158224.8125,157124.7813,134269.7813,187500.0000,187500.0000,187500.0000,29.719299,NaN,NaN,NaN
152582.7656,168198.4844,150031.8281,160395.0156,187500.0000,187500.0000,187500.0000,187500.0000,147160.6875,145495.6406,156635.5469,152943.7344,187500.0000,169797.9688,187500.0000,170738.0156,158217.1719,157114.4219,134229.5000,187500.0000,187500.0000,187500.0000,29.723297,NaN,NaN,NaN
153016.1875,170885.5156,149754.8750,161481.0469,187500.0000,187500.0000,187500.0000,187500.0000,146784.8906,145281.7500,156191.1250,153240.8125,187500.0000,169817.6875,187500.0000,170839.5781,158599.3438,157382.9688,134181.3125,187500.0000,187500.0000,187500.0000,29.727295,NaN,NaN,NaN
153249.5625,172433.7813,149585.6406,162136.8438,187500.0000,187500.0000,187500.0000,187500.0000,146562.1875,145170.4688,155925.1406,153418.0781,187500.0000,169832.6094,187500.0000,170929.1875,158807.1563,157530.7500,134178.4844,187500.0000,187500.0000,187500.0000,29.731293,NaN,NaN,NaN
152968.7813,170874.3438,149716.5625,161511.7031,187500.0000,187500.0000,187500.0000,187500.0000,146757.4531,145285.0781,156151.6563,153234.9531,187500.0000,169818.6875,187500.0000,170888.6719,158568.3281,157362.2500,134212.0000,187500.0000,187500.0000,187500.0000,29.735291,NaN,NaN,NaN
152500.1406,168043.9219,149981.7813,160303.4375,187500.0000,187500.0000,187500.0000,187500.0000,147129.9063,145498.9375,156595.1094,152899.7188,187500.0000,169796.5625,187500.0000,170750.2500,158152.0938,157057.4531,134177.9375,187500.0000,187500.0000,187500.0000,29.739288,NaN,NaN,NaN
152926.6563,170712.9375,149700.9844,161380.4531,187500.0000,187500.0000,187500.0000,187500.0000,146750.7344,145268.3906,156149.7969,153195.2031,187500.0000,169810.1250,187500.0000,170842.6406,158534.0156,157325.3125,134129.8438,187500.0000,187500.0000,187500.0000,29.743286,NaN,NaN,NaN
153167.0000,172285.4219,149533.4063,162050.5000,187500.0000,187500.0000,187500.0000,187500.0000,146529.1563,145153.0781,155886.0625,153384.1719,187500.0000,169826.6250,187500.0000,170933.9531,158747.7656,157477.0469,134128.2500,187500.0000,187500.0000,187500.0000,29.747284,NaN,NaN,NaN
152899.5781,170759.5938,149672.3281,161448.1719,187500.0000,187500.0000,187500.0000,187500.0000,146730.1406,145283.3125,156121.0469,153219.2656,187500.0000,169820.2813,187500.0000,170903.6406,158514.5938,157312.2656,134163.2344,187500.0000,187500.0000,187500.0000,29.751282,NaN,NaN,NaN
152432.5469,167993.7188,149928.5625,160300.6250,187500.0000,187500.0000,187500.0000,187500.0000,147091.9063,145482.1094,156549.9063,152897.5313,187500.0000,169795.0625,187500.0000,170784.2188,158107.2969,157018.2031,134169.5000,187500.0000,187500.0000,187500.0000,29.755280,NaN,NaN,NaN
152413.2500,167881.5781,149930.3594,160217.1250,187500.0000,187500.0000,187500.0000,187500.0000,147098.7969,145480.0938,156558.8750,152871.6875,187500.0000,169790.7031,187500.0000,170753.6719,158088.9688,156999.1094,134126.5938,187500.0000,187500.0000,187500.0000,29.759277,NaN,NaN,NaN
152844.2656,170553.0156,149654.9375,161296.4688,187500.0000,187500.0000,187500.0000,187500.0000,146723.7813,145268.4688,156117.2500,153167.4063,187500.0000,169809.9688,187500.0000,170853.6406,158469.4844,157266.4844,134078.0781,187500.0000,187500.0000,187500.0000,29.763275,NaN,NaN,NaN
153077.7969,172135.4688,149474.4063,161961.4219,187500.0000,187500.0000,187500.0000,187500.0000,146489.2656,145136.3125,155836.8750,153342.2656,187500.0000,169820.2188,187500.0000,170937.0781,158683.8281,157419.1094,134074.9063,187500.0000,187500.0000,187500.0000,29.767273,NaN,NaN,NaN
152811.8906,170628.8750,149608.6250,161362.9531,187500.0000,187500.0000,187500.0000,187500.0000,146686.2500,145265.2344,156063.6250,153171.5313,187500.0000,169813.5469,187500.0000,170908.2031,158452.5156,157256.5000,134109.3906,187500.0000,187500.0000,187500.0000,29.771271,NaN,NaN,NaN
152351.0938,167866.6719,149871.4844,160218.7031,187500.0000,187500.0000,187500.0000,187500.0000,147053.6406,145483.5625,156498.2969,152852.0625,187500.0000,169793.5938,187500.0000,170797.5469,158045.2500,156963.6250,134116.4063,187500.0000,187500.0000,187500.0000,29.775269,NaN,NaN,NaN
152319.4844,167712.6875,149869.0625,160112.5625,187500.0000,187500.0000,187500.0000,187500.0000,147058.2031,145468.3906,156504.9844,152814.5781,187500.0000,169782.9219,187500.0000,170758.1406,158022.0938,156941.6719,134073.8750,187500.0000,187500.0000,187500.0000,29.779266,NaN,NaN,NaN
152748.2656,170372.8750,149593.8438,161187.4375,187500.0000,187500.0000,187500.0000,187500.0000,146684.5625,145253.5469,156065.2813,153110.3438,187500.0000,169800.5156,187500.0000,170856.0625,158399.5938,157206.0938,134023.4531,187500.0000,187500.0000,187500.0000,29.783264,NaN,NaN,NaN
152748.2656,170372.8750,149593.8438,161187.4375,187500.0000,187500.0000,187500.0000,187500.0000,146684.5625,145253.5469,156065.2813,153110.3438,187500.0000,169800.5156,187500.0000,170856.0625,158399.5938,157206.0938,134023.4531,187500.0000,187500.0000,187500.0000,29.787262,NaN,NaN,NaN
152996.0469,171988.6250,149422.4844,161874.0938,187500.0000,187500.0000,187500.0000,187500.0000,146456.5156,145137.7344,155794.6875,153302.3906,187500.0000,169819.1094,187500.0000,170950.0000,158620.2656,157363.0000,134022.3125,187500.0000,187500.0000,187500.0000,29.791260,NaN,NaN,NaN
152731.0313,170501.4219,149552.0781,161283.8125,187500.0000,187500.0000,187500.0000,187500.0000,146647.9531,145249.9219,156017.3594,153136.5156,187500.0000,169810.1719,187500.0000,170916.4688,158395.6563,157205.1563,134059.6406,187500.0000,187500.0000,187500.0000,29.795258,NaN,NaN,NaN
152271.1250,167733.7188,149818.1563,160141.1719,187500.0000,187500.0000,187500.0000,187500.0000,147019.8906,145466.8438,156457.7188,152823.2500,187500.0000,169791.1563,187500.0000,170806.2969,157988.5781,156911.6094,134067.7188,187500.0000,187500.0000,187500.0000,29.799255,NaN,NaN,NaN
152243.3438,167561.4531,149827.0625,160034.0156,187500.0000,187500.0000,187500.0000,187500.0000,147035.0156,145469.1875,156478.5156,152794.1250,187500.0000,169785.4688,187500.0000,170772.8438,157962.5156,156887.0156,134025.6094,187500.0000,187500.0000,187500.0000,29.803253,NaN,NaN,NaN
152243.3438,167561.4531,149827.0625,160034.0156,187500.0000,187500.0000,187500.0000,187500.0000,147035.0156,145469.1875,156478.5156,152794.1250,187500.0000,169785.4688,187500.0000,170772.8438,157962.5156,156887.0156,134025.6094,187500.0000,187500.0000,187500.0000,29.807251,NaN,NaN,NaN
152665.6250,170208.5313,149547.0469,161098.9219,187500.0000,187500.0000,187500.0000,187500.0000,146657.2500,145238.5938,156033.8594,153084.0313,187500.0000,169798.3906,187500.0000,170863.0156,158340.8281,157152.1875,133976.1875,187500.0000,187500.0000,187500.0000,29.811249,NaN,NaN,NaN
152915.0469,171841.6094,149371.8750,161790.2344,187500.0000,187500.0000,187500.0000,187500.0000,146425.7969,145119.0938,155756.9844,153274.7188,187500.0000,169815.8594,187500.0000,170956.8594,158562.9531,157310.2031,133973.4219,187500.0000,187500.0000,187500.0000,29.815247,NaN,NaN,NaN
152657.2500,170380.0781,149503.2188,161211.7031,187500.0000,187500.0000,187500.0000,187500.0000,146616.8438,145245.8594,155978.0469,153111.2813,187500.0000,169810.4063,187500.0000,170930.5156,158338.9688,157152.7031,134008.9375,187500.0000,187500.0000,187500.0000,29.819244,NaN,NaN,NaN
152187.7656,167599.8125,149760.5000,160056.4375,187500.0000,187500.0000,187500.0000,187500.0000,146980.6406,145447.7188,156407.5313,152784.3594,187500.0000,169786.1094,187500.0000,170812.8281,157930.2188,156858.5469,134017.2344,187500.0000,187500.0000,187500.0000,29.823242,NaN,NaN,NaN
152152.9844,167397.5469,149770.0781,159934.1719,187500.0000,187500.0000,187500.0000,187500.0000,146999.1719,145452.0000,156429.5938,152746.3125,187500.0000,169780.7813,187500.0000,170778.9219,157898.4219,156829.9844,133974.8125,187500.0000,187500.0000,187500.0000,29.827240,NaN,NaN,NaN
152578.9531,170039.9688,149496.7031,161000.4375,187500.0000,187500.0000,187500.0000,187500.0000,146627.6094,145240.2656,155992.3281,153038.8750,187500.0000,169798.6875,187500.0000,170876.3125,158273.7188,157092.9219,133924.5625,187500.0000,187500.0000,187500.0000,29.831238,NaN,NaN,NaN
152822.8281,171683.4375,149310.6719,161691.1250,187500.0000,187500.0000,187500.0000,187500.0000,146384.8594,145101.5313,155703.7031,153223.9063,187500.0000,169808.7969,187500.0000,170960.7969,158496.9219,157251.1719,133919.7188,187500.0000,187500.0000,187500.0000,29.835236,NaN,NaN,NaN
152570.6719,170246.5000,149441.6406,161125.0000,187500.0000,187500.0000,187500.0000,187500.0000,146575.2656,145225.8438,155923.9531,153068.2031,187500.0000,169804.0938,187500.0000,170936.3281,158277.8125,157097.0781,133956.0313,187500.0000,187500.0000,187500.0000,29.839233,NaN,NaN,NaN
152108.0000,167466.4844,149708.2969,159977.1094,187500.0000,187500.0000,187500.0000,187500.0000,146947.5156,145444.8906,156365.2031,152753.3438,187500.0000,169785.0313,187500.0000,170826.0469,157868.2344,156801.8906,133964.4531,187500.0000,187500.0000,187500.0000,29.843231,NaN,NaN,NaN
152062.8438,167226.0625,149715.4688,159837.2344,187500.0000,187500.0000,187500.0000,187500.0000,146964.5313,145434.6563,156387.7969,152710.2031,187500.0000,169774.0625,187500.0000,170782.3125,157833.2344,156770.8438,133923.2656,187500.0000,187500.0000,187500.0000,29.847229,NaN,NaN,NaN
152489.2031,169863.1563,149443.9531,160902.0156,187500.0000,187500.0000,187500.0000,187500.0000,146595.6094,145222.0000,155953.4531,153005.3906,187500.0000,169792.5469,187500.0000,170879.2188,158209.0156,157034.2031,133873.7344,187500.0000,187500.0000,187500.0000,29.851227,NaN,NaN,NaN
152745.7344,171537.0938,149265.3438,161610.6094,187500.0000,187500.0000,187500.0000,187500.0000,146358.2344,145100.9531,155670.8594,153201.9844,187500.0000,169810.0156,187500.0000,170973.7188,158437.2656,157196.4375,133870.2500,187500.0000,187500.0000,187500.0000,29.855225,NaN,NaN,NaN
152490.4844,170112.8438,149387.6563,161044.9844,187500.0000,187500.0000,187500.0000,187500.0000,146540.1719,145209.3281,155880.3438,153040.4063,187500.0000,169801.2813,187500.0000,170943.1250,158221.9375,157045.9063,133907.9844,187500.0000,187500.0000,187500.0000,29.859222,NaN,NaN,NaN
152024.9531,167327.4063,149651.9219,159892.3750,187500.0000,187500.0000,187500.0000,187500.0000,146911.4219,145427.8594,156318.0313,152719.3594,187500.0000,169781.3594,187500.0000,170832.3906,157810.4844,156749.9219,133916.1406,187500.0000,187500.0000,187500.0000,29.863220,NaN,NaN,NaN
152395.6250,169678.0781,149388.4219,160792.8750,187500.0000,187500.0000,187500.0000,187500.0000,146561.9063,145212.9063,155907.4531,152955.4219,187500.0000,169789.0469,187500.0000,170884.2031,158143.0313,156977.7188,133825.2813,187500.0000,187500.0000,187500.0000,29.867218,NaN,NaN,NaN
152656.0625,171374.9063,149207.7031,161509.9219,187500.0000,187500.0000,187500.0000,187500.0000,146322.6094,145090.6875,155621.2500,153153.0781,187500.0000,169808.6094,187500.0000,170981.7344,158375.1719,157143.4688,133822.4375,187500.0000,187500.0000,187500.0000,29.871216,NaN,NaN,NaN
152407.5313,169980.8594,149330.0625,160958.5781,187500.0000,187500.0000,187500.0000,187500.0000,146502.1094,145209.5781,155829.7813,152996.9531,187500.0000,169801.3438,187500.0000,170956.3750,158159.0156,156991.1406,133855.3906,187500.0000,187500.0000,187500.0000,29.875214,NaN,NaN,NaN
151935.7344,167181.9063,149590.5156,159798.2188,187500.0000,187500.0000,187500.0000,187500.0000,146869.7813,145412.6406,156264.7969,152672.3594,187500.0000,169777.0313,187500.0000,170838.4688,157748.5781,156696.1094,133865.5156,187500.0000,187500.0000,187500.0000,29.879211,NaN,NaN,NaN
151887.1875,166888.9844,149609.9688,159640.8281,187500.0000,187500.0000,187500.0000,187500.0000,146901.3438,145422.9063,156303.7813,152629.1719,187500.0000,169769.8906,187500.0000,170799.7969,157704.2500,156658.2969,133823.9844,187500.0000,187500.0000,187500.0000,29.883209,NaN,NaN,NaN
152310.2188,169507.0469,149340.0313,160697.2344,187500.0000,187500.0000,187500.0000,187500.0000,146533.8750,145211.0313,155872.4844,152923.3438,187500.0000,169786.3750,187500.0000,170894.1719,158076.4688,156918.2656,133772.4844,187500.0000,187500.0000,187500.0000,29.887207,NaN,NaN,NaN
152566.0313,171213.7344,149149.4063,161414.1719,187500.0000,187500.0000,187500.0000,187500.0000,146284.0469,145065.7969,155575.5938,153118.9063,187500.0000,169797.2188,187500.0000,170980.7344,158309.7500,157083.1094,133766.4844,187500.0000,187500.0000,187500.0000,29.891205,NaN,NaN,NaN
152325.2031,169844.4688,149274.0156,160876.2031,187500.0000,187500.0000,187500.0000,187500.0000,146465.9063,145183.9219,155784.9688,152971.7344,187500.0000,169794.1875,187500.0000,170959.6875,158100.6406,156936.0156,133803.0625,187500.0000,187500.0000,187500.0000,29.895203,NaN,NaN,NaN
151859.7813,167052.2656,149541.0313,159723.0781,187500.0000,187500.0000,187500.0000,187500.0000,146838.3750,145403.8125,156225.7031,152653.3125,187500.0000,169775.0156,187500.0000,170849.3750,157689.3125,156639.4375,133812.8750,187500.0000,187500.0000,187500.0000,29.899200,NaN,NaN,NaN
151796.6563,166719.3750,149553.5469,159542.0781,187500.0000,187500.0000,187500.0000,187500.0000,146864.4375,145399.0469,156258.1406,152594.4844,187500.0000,169760.7813,187500.0000,170800.1406,157638.3750,156596.4063,133769.7969,187500.0000,187500.0000,187500.0000,29.903198,NaN,NaN,NaN
152219.2188,169328.1875,149285.4219,160593.1719,187500.0000,187500.0000,187500.0000,187500.0000,146500.4063,145190.3125,155828.1719,152884.4219,187500.0000,169780.2969,187500.0000,170896.6719,158011.2500,156858.1875,133721.1094,187500.0000,187500.0000,187500.0000,29.907196,NaN,NaN,NaN
152488.2656,171067.9688,149102.1719,161328.0469,187500.0000,187500.0000,187500.0000,187500.0000,146256.2656,145067.0625,155536.7969,153088.2969,187500.0000,169801.4531,187500.0000,170996.6094,158251.2188,157029.8438,133719.1563,187500.0000,187500.0000,187500.0000,29.911194,NaN,NaN,NaN
152242.8594,169714.1719,149215.5313,160789.9063,187500.0000,187500.0000,187500.0000,187500.0000,146426.8750,145169.7031,155732.9531,152931.7656,187500.0000,169793.3281,187500.0000,170969.2031,158044.8906,156885.7500,133756.0938,187500.0000,187500.0000,187500.0000,29.915192,NaN,NaN,NaN
151776.1875,166914.8125,149483.5000,159633.2656,187500.0000,187500.0000,187500.0000,187500.0000,146801.7188,145391.5156,156175.2031,152609.9688,187500.0000,169775.3750,187500.0000,170860.5000,157633.0625,156589.9063,133767.6563,187500.0000,187500.0000,187500.0000,29.919189,NaN,NaN,NaN
151718.4531,166563.7188,149509.5625,159451.1719,187500.0000,187500.0000,187500.0000,187500.0000,146840.8125,145409.4531,156223.6406,152557.3281,187500.0000,169769.5000,187500.0000,170821.2188,157580.8438,156547.2344,133728.0938,187500.0000,187500.0000,187500.0000,29.923187,NaN,NaN,NaN
152129.7188,169153.5000,149232.1094,160488.5156,187500.0000,187500.0000,187500.0000,187500.0000,146468.0938,145179.8906,155785.7813,152837.5781,187500.0000,169779.5313,187500.0000,170905.4375,157949.2969,156804.7031,133675.7188,187500.0000,187500.0000,187500.0000,29.927185,NaN,NaN,NaN
152398.7188,170907.8750,149043.8438,161228.1563,187500.0000,187500.0000,187500.0000,187500.0000,146218.8438,145046.9844,155489.1875,153042.5156,187500.0000,169795.6406,187500.0000,171000.7344,158188.3906,156974.0156,133669.0313,187500.0000,187500.0000,187500.0000,29.931183,NaN,NaN,NaN
152164.3438,169582.5469,149162.8594,160707.8281,187500.0000,187500.0000,187500.0000,187500.0000,146393.0156,145162.4375,155690.7500,152898.8750,187500.0000,169791.2500,187500.0000,170980.4688,157985.0781,156831.2031,133704.8906,187500.0000,187500.0000,187500.0000,29.935181,NaN,NaN,NaN
151690.7813,166772.9063,149424.0625,159543.8438,187500.0000,187500.0000,187500.0000,187500.0000,146762.1563,145366.6719,156127.0156,152573.1406,187500.0000,169767.1094,187500.0000,170863.0938,157572.7813,156534.4219,133716.0156,187500.0000,187500.0000,187500.0000,29.939178,NaN,NaN,NaN
151690.7813,166772.9063,149424.0625,159543.8438,187500.0000,187500.0000,187500.0000,187500.0000,146762.1563,145366.6719,156127.0156,152573.1406,187500.0000,169767.1094,187500.0000,170863.0938,157572.7813,156534.4219,133716.0156,187500.0000,187500.0000,187500.0000,29.943176,NaN,NaN,NaN
151627.5625,166391.2344,149452.3438,159349.4531,187500.0000,187500.0000,187500.0000,187500.0000,146805.6563,145384.3281,156178.9375,152517.6875,187500.0000,169760.6875,187500.0000,170821.9063,157515.6875,156487.7500,133676.0313,187500.0000,187500.0000,187500.0000,29.947174,NaN,NaN,NaN
152043.8281,168975.5781,149183.5781,160388.4219,187500.0000,187500.0000,187500.0000,187500.0000,146440.6250,145173.8125,155749.3906,152802.2188,187500.0000,169777.0313,187500.0000,170913.5938,157882.6094,156744.3594,133624.2500,187500.0000,187500.0000,187500.0000,29.951172,NaN,NaN,NaN
152310.9688,170745.7344,148987.8750,161130.0313,187500.0000,187500.0000,187500.0000,187500.0000,146183.6250,145027.4844,155442.7500,153002.3594,187500.0000,169791.2031,187500.0000,171004.7344,158127.0313,156918.4531,133619.9531,187500.0000,187500.0000,187500.0000,29.955170,NaN,NaN,NaN
152080.7656,169447.6250,149104.0156,160619.7656,187500.0000,187500.0000,187500.0000,187500.0000,146354.5469,145142.0781,155638.5938,152859.4688,187500.0000,169787.8438,187500.0000,170986.7188,157927.9844,156779.5156,133656.5625,187500.0000,187500.0000,187500.0000,29.959167,NaN,NaN,NaN
