Fp1,Fp2,F3,F4,C3,C4,P3,P4,O1,O2,F7,F8,T7,T8,P7,P8,Fz,Cz,Pz,AFz,Cpz,POz,TimeStamp,Event,EventFile,EventTime
-765.4355,-177361.4688,-183997.9219,-186182.2969,-175219.8281,-175726.1875,-176821.9688,-184733.0000,-187304.6563,-187500.0156,-180977.8438,-187500.0156,-178832.2969,-159173.0000,-173821.5156,-177614.6406,-187500.0156,-187500.0156,-187500.0156,-171823.1563,-182449.8125,-187500.0156,59.135742,NaN,NaN,NaN
-476.4051,-180459.1875,-185383.0313,-187500.0156,-176121.8438,-178398.5625,-178430.5000,-186206.5625,-187500.0156,-187500.0156,-182849.6875,-187500.0156,-179933.3750,-163236.4844,-174732.0469,-179547.0156,-187500.0156,-187500.0156,-187500.0156,-173896.1406,-183963.0469,-187500.0156,59.139740,NaN,NaN,NaN
-275.2170,-181815.3906,-185973.2188,-187500.0156,-176498.0156,-179660.2500,-179149.5781,-186890.7031,-187500.0156,-187500.0156,-183627.3906,-187500.0156,-180413.3750,-165224.9375,-175101.6875,-180477.8125,-187500.0156,-187500.0156,-187500.0156,-174759.6719,-184714.6250,-187500.0156,59.143738,NaN,NaN,NaN
-872.7015,-179397.1563,-184898.9688,-187500.0156,-175790.9219,-177641.5781,-177914.8906,-185776.0000,-187500.0156,-187500.0156,-182161.7031,-187500.0156,-179565.6406,-162202.9375,-174385.5625,-179035.8281,-187500.0156,-187500.0156,-187500.0156,-173133.0000,-183591.8125,-187500.0156,59.147736,NaN,NaN,NaN
-893.3992,-176808.2344,-183739.7344,-185735.3750,-175043.4531,-175340.5781,-176554.2500,-184513.0625,-187081.5469,-187500.0156,-180608.1719,-187500.0156,-178639.8438,-158656.3125,-173635.7188,-177358.5313,-187500.0156,-187500.0156,-187500.0156,-171416.1094,-182266.8281,-187500.0156,59.151733,NaN,NaN,NaN
-764.6531,-177345.5313,-183987.1250,-186170.5156,-175210.4688,-175716.5781,-176816.9531,-184727.7500,-187294.1406,-187500.0156,-180965.6406,-187500.0156,-178829.4375,-159162.9219,-173815.4219,-177608.0000,-187500.0156,-187500.0156,-187500.0156,-171817.1563,-182449.5469,-187500.0156,59.155731,NaN,NaN,NaN
-472.2029,-180448.9063,-185379.1875,-187500.0156,-176119.8281,-178395.1250,-178431.7813,-186207.5938,-187500.0156,-187500.0156,-182844.4531,-187500.0156,-179936.3125,-163229.2188,-174733.5000,-179548.1406,-187500.0156,-187500.0156,-187500.0156,-173888.9375,-183961.2031,-187500.0156,59.159729,NaN,NaN,NaN
-273.5183,-181817.3750,-185977.1406,-187500.0156,-176502.6250,-179666.4688,-179158.7500,-186899.4063,-187500.0156,-187500.0156,-183631.6875,-187500.0156,-180422.3594,-165230.9688,-175108.7188,-180488.4063,-187500.0156,-187500.0156,-187500.0156,-174758.0625,-184716.5313,-187500.0156,59.163727,NaN,NaN,NaN
-871.3604,-179392.7188,-184893.2031,-187500.0156,-175784.6875,-177641.3750,-177915.9063,-185775.9063,-187500.0156,-187500.0156,-182157.0938,-187500.0156,-179567.5625,-162208.2500,-174383.4688,-179036.8906,-187500.0156,-187500.0156,-187500.0156,-173135.6406,-183597.0469,-187500.0156,59.167725,NaN,NaN,NaN
-893.6003,-176806.3125,-183739.2031,-185737.6094,-175043.0781,-175344.4063,-176559.6875,-184517.7344,-187083.5781,-187500.0156,-180608.2188,-187500.0156,-178646.1250,-158661.5469,-173639.9688,-177365.6875,-187500.0156,-187500.0156,-187500.0156,-171415.0313,-182269.4688,-187500.0156,59.171722,NaN,NaN,NaN
-765.3461,-177338.9375,-183987.2813,-186168.7969,-175212.2344,-175716.0938,-176821.7188,-184732.4063,-187294.5781,-187500.0156,-180964.4844,-187500.0156,-178835.3438,-159158.3594,-173819.9844,-177613.4219,-187500.0156,-187500.0156,-187500.0156,-171810.0781,-182447.6563,-187500.0156,59.175720,NaN,NaN,NaN
-473.0076,-180429.4688,-185366.6563,-187500.0156,-176108.8906,-178381.8750,-178424.8750,-186200.1563,-187500.0156,-187500.0156,-182830.4688,-187500.0156,-179932.3125,-163214.1719,-174726.3594,-179538.9531,-187500.0156,-187500.0156,-187500.0156,-173881.6719,-183958.9219,-187500.0156,59.179718,NaN,NaN,NaN
-272.4007,-181815.5469,-185976.7656,-187500.0156,-176502.5938,-179669.7031,-179164.1406,-186904.0313,-187500.0156,-187500.0156,-183631.2813,-187500.0156,-180427.8750,-165234.1719,-175112.0313,-180494.0469,-187500.0156,-187500.0156,-187500.0156,-174756.8438,-184718.8594,-187500.0156,59.183716,NaN,NaN,NaN
-870.6451,-179402.2969,-184900.4844,-187500.0156,-175791.3281,-177654.7656,-177928.9844,-185788.1875,-187500.0156,-187500.0156,-182165.3281,-187500.0156,-179578.7344,-162224.3906,-174392.3750,-179052.1250,-187500.0156,-187500.0156,-187500.0156,-173138.2344,-183602.7500,-187500.0156,59.187714,NaN,NaN,NaN
-894.1144,-176797.7813,-183731.2656,-185732.8438,-175035.4063,-175341.5156,-176558.3281,-184515.6563,-187076.3125,-187500.0156,-180600.5313,-187500.0156,-178645.9063,-158661.9688,-173635.8750,-177363.9688,-187500.0156,-187500.0156,-187500.0156,-171413.5938,-182272.8125,-187500.0156,59.191711,NaN,NaN,NaN
-894.1144,-176797.7813,-183731.2656,-185732.8438,-175035.4063,-175341.5156,-176558.3281,-184515.6563,-187076.3125,-187500.0156,-180600.5313,-187500.0156,-178645.9063,-158661.9688,-173635.8750,-177363.9688,-187500.0156,-187500.0156,-187500.0156,-171413.5938,-182272.8125,-187500.0156,59.195709,NaN,NaN,NaN
-766.0389,-177328.2813,-183982.7031,-186162.5313,-175209.7344,-175712.5938,-176822.5625,-184733.0469,-187291.3594,-187500.0156,-180958.7500,-187500.0156,-178837.9531,-159151.5469,-173820.7188,-177614.4688,-187500.0156,-187500.0156,-187500.0156,-171801.8281,-182446.3125,-187500.0156,59.199707,NaN,NaN,NaN
-766.0389,-177328.2813,-183982.7031,-186162.5313,-175209.7344,-175712.5938,-176822.5625,-184733.0469,-187291.3594,-187500.0156,-180958.7500,-187500.0156,-178837.9531,-159151.5469,-173820.7188,-177614.4688,-187500.0156,-187500.0156,-187500.0156,-171801.8281,-182446.3125,-187500.0156,59.203705,NaN,NaN,NaN
-475.8463,-180420.7656,-185366.1875,-187500.0156,-176111.1094,-178379.6250,-178428.6719,-186204.2656,-187500.0156,-187500.0156,-182828.0156,-187500.0156,-179937.5781,-163205.3281,-174730.4219,-179542.7500,-187500.0156,-187500.0156,-187500.0156,-173871.5469,-183956.0156,-187500.0156,59.207703,NaN,NaN,NaN
-475.8463,-180420.7656,-185366.1875,-187500.0156,-176111.1094,-178379.6250,-178428.6719,-186204.2656,-187500.0156,-187500.0156,-182828.0156,-187500.0156,-179937.5781,-163205.3281,-174730.4219,-179542.7500,-187500.0156,-187500.0156,-187500.0156,-173871.5469,-183956.0156,-187500.0156,59.211700,NaN,NaN,NaN
-270.2773,-181805.8906,-185969.0625,-187500.0156,-176495.5625,-179665.3750,-179162.2344,-186901.6875,-187500.0156,-187500.0156,-183623.1719,-187500.0156,-180427.7500,-165230.5781,-175108.3438,-180491.0469,-187500.0156,-187500.0156,-187500.0156,-174754.2188,-184721.2656,-187500.0156,59.215698,NaN,NaN,NaN
-270.2773,-181805.8906,-185969.0625,-187500.0156,-176495.5625,-179665.3750,-179162.2344,-186901.6875,-187500.0156,-187500.0156,-183623.1719,-187500.0156,-180427.7500,-165230.5781,-175108.3438,-180491.0469,-187500.0156,-187500.0156,-187500.0156,-174754.2188,-184721.2656,-187500.0156,59.219696,NaN,NaN,NaN
-867.9406,-179406.5625,-184903.1406,-187500.0156,-175793.8281,-177664.5313,-177937.8281,-185796.3281,-187500.0156,-187500.0156,-182169.0156,-187500.0156,-179586.9844,-162236.1563,-174398.0781,-179062.3594,-187500.0156,-187500.0156,-187500.0156,-173139.7969,-183608.4844,-187500.0156,59.223694,NaN,NaN,NaN
-867.9406,-179406.5625,-184903.1406,-187500.0156,-175793.8281,-177664.5313,-177937.8281,-185796.3281,-187500.0156,-187500.0156,-182169.0156,-187500.0156,-179586.9844,-162236.1563,-174398.0781,-179062.3594,-187500.0156,-187500.0156,-187500.0156,-173139.7969,-183608.4844,-187500.0156,59.227692,NaN,NaN,NaN
-894.2709,-176802.8906,-183737.1250,-185742.0313,-175041.7188,-175352.0156,-176569.7031,-184526.7031,-187082.4844,-187500.0156,-180606.7656,-187500.0156,-178656.3906,-158672.8125,-173644.4531,-177377.2500,-187500.0156,-187500.0156,-187500.0156,-171412.5313,-182277.0625,-187500.0156,59.231689,NaN,NaN,NaN
-894.2709,-176802.8906,-183737.1250,-185742.0313,-175041.7188,-175352.0156,-176569.7031,-184526.7031,-187082.4844,-187500.0156,-180606.7656,-187500.0156,-178656.3906,-158672.8125,-173644.4531,-177377.2500,-187500.0156,-187500.0156,-187500.0156,-171412.5313,-182277.0625,-187500.0156,59.235687,NaN,NaN,NaN
-765.9943,-177312.2031,-183972.1250,-186150.4688,-175200.9219,-175703.5000,-176817.8438,-184728.0625,-187281.9531,-187500.0156,-180947.1719,-187500.0156,-178835.9219,-159141.4844,-173815.7031,-177608.5625,-187500.0156,-187500.0156,-187500.0156,-171794.9844,-182446.0625,-187500.0156,59.239685,NaN,NaN,NaN
-476.6286,-180410.0000,-185362.0469,-187500.0156,-176109.1875,-178376.2188,-178429.6094,-186204.9531,-187500.0156,-187500.0156,-182822.9063,-187500.0156,-179940.7188,-163197.6563,-174732.0469,-179543.9063,-187500.0156,-187500.0156,-187500.0156,-173863.6406,-183954.1094,-187500.0156,59.243683,NaN,NaN,NaN
-476.6286,-180410.0000,-185362.0469,-187500.0156,-176109.1875,-178376.2188,-178429.6094,-186204.9531,-187500.0156,-187500.0156,-182822.9063,-187500.0156,-179940.7188,-163197.6563,-174732.0469,-179543.9063,-187500.0156,-187500.0156,-187500.0156,-173863.6406,-183954.1094,-187500.0156,59.247681,NaN,NaN,NaN
-267.3716,-181808.1250,-185972.9375,-187500.0156,-176500.5625,-179672.5313,-179171.5938,-186910.4844,-187500.0156,-187500.0156,-183627.6875,-187500.0156,-180436.7500,-165236.7656,-175115.6250,-180501.8125,-187500.0156,-187500.0156,-187500.0156,-174752.2344,-184723.3281,-187500.0156,59.251678,NaN,NaN,NaN
-267.3716,-181808.1250,-185972.9375,-187500.0156,-176500.5625,-179672.5313,-179171.5938,-186910.4844,-187500.0156,-187500.0156,-183627.6875,-187500.0156,-180436.7500,-165236.7656,-175115.6250,-180501.8125,-187500.0156,-187500.0156,-187500.0156,-174752.2344,-184723.3281,-187500.0156,59.255676,NaN,NaN,NaN
-865.1466,-179403.9063,-184897.7813,-187500.0156,-175788.1563,-177666.2344,-177939.4219,-185796.9844,-187500.0156,-187500.0156,-182164.8750,-187500.0156,-179588.7969,-162243.5938,-174395.8594,-179063.9531,-187500.0156,-187500.0156,-187500.0156,-173143.0000,-183614.4844,-187500.0156,59.259674,NaN,NaN,NaN
102669.0234,6033.6074,5818.4048,5565.0029,-4883.2300,-4926.6372,-4852.6084,-4815.7280,6207.8613,6543.5176,43207.1055,14258.4453,-4848.8530,13416.8350,-4790.2021,15229.3828,7534.7729,21806.0488,6551.6763,29018.0625,14476.6875,20472.0508,4.591431,NaN,NaN,NaN
45712.7344,7771.4331,6976.8955,7380.6353,-5910.7173,-5954.3257,-5879.1567,-5843.8857,7471.8525,7989.5635,44263.4023,16826.7949,-5876.7651,15733.9736,-5818.3154,16603.8359,8510.5156,23149.2324,7653.9746,30652.1309,15556.7686,21365.3828,4.595428,NaN,NaN,NaN
45298.6250,7769.1309,6983.8691,7430.3452,-5877.9272,-5921.4688,-5846.2998,-5810.9614,7527.8213,8061.2012,44264.9023,16880.6406,-5843.6846,15872.2861,-5785.3467,16698.8535,8512.4600,23200.5293,7662.8706,30652.8457,15640.1855,21542.9238,4.599426,NaN,NaN,NaN
103596.6406,5943.7534,5809.0840,5637.6240,-4788.8833,-4832.2905,-4758.4629,-4721.4932,6259.1587,6599.7769,43159.8750,14231.6230,-4754.2383,13561.1377,-4695.5425,15334.8389,7523.3511,21856.4063,6539.6509,28958.5391,14599.1084,20751.6719,4.603424,NaN,NaN,NaN
141425.7344,4785.5083,5082.3618,4140.8618,-4128.9707,-4172.2212,-4099.4663,-4061.3342,5395.9790,5609.4829,42459.5078,12463.9805,-4094.0571,11934.9590,-4035.0261,14372.3057,6903.3135,20938.3984,5806.2900,27877.1172,13856.3379,20057.6270,4.607422,NaN,NaN,NaN
102546.6719,5970.7544,5910.0469,5441.6216,-4896.2163,-4939.7129,-4865.5498,-4828.7813,6218.4561,6558.5825,43189.9180,14153.9287,-4861.5713,13383.1963,-4802.9648,15230.1875,7589.1992,21812.5078,6560.5942,28985.4961,14526.2637,20485.3945,4.611420,NaN,NaN,NaN
45543.7578,7685.8257,7066.1235,7317.5811,-5900.4131,-5944.0215,-5868.6963,-5833.4697,7474.6021,7987.9321,44241.8789,16705.8711,-5866.4385,15691.1025,-5807.9888,16594.5605,8568.0938,23158.8867,7665.1504,30603.5156,15608.3564,21379.9336,4.615417,NaN,NaN,NaN
44964.6445,7666.3350,7071.9575,7353.5674,-5875.3569,-5918.9204,-5843.5952,-5808.3687,7533.0293,8054.9424,44242.3242,16754.2402,-5841.1812,15829.8174,-5782.7759,16688.2363,8570.6865,23214.5879,7676.8403,30578.3027,15693.8301,21559.3301,4.619415,NaN,NaN,NaN
103331.5313,5829.5581,5903.2520,5436.6147,-4799.2769,-4842.5947,-4768.8784,-4731.9536,6278.1353,6622.1289,43145.5703,14105.8057,-4764.6094,13524.2803,-4705.9810,15336.2246,7576.8613,21871.7168,6554.5596,28839.3379,14652.1494,20768.9277,4.623413,NaN,NaN,NaN
141624.0156,4619.4126,5152.7251,3174.6853,-4107.2446,-4150.3833,-4077.5615,-4039.4519,5401.4775,5606.2197,42426.8516,12296.0742,-4072.3088,11871.5918,-4013.3450,14353.6865,6945.9385,20947.3828,5816.7505,27692.0449,13903.5000,20071.6641,4.627411,NaN,NaN,NaN
103312.7578,5745.4263,5967.3345,4937.5225,-4868.0308,-4911.5498,-4837.4092,-4800.5288,6213.9858,6536.1865,43146.1523,13937.5859,-4833.4751,13289.7656,-4774.9136,15193.8438,7619.7988,21812.8887,6564.5732,28722.5039,14564.7539,20493.2852,4.631409,NaN,NaN,NaN
46646.1445,7414.8335,7135.3022,7101.9985,-5881.3472,-5925.0225,-5849.5854,-5814.2920,7481.1733,7991.6426,44210.2500,16463.6465,-5847.1938,15588.2402,-5788.8560,16564.1172,8591.6523,23158.5527,7669.8667,30255.1191,15643.7168,21386.3496,4.635406,NaN,NaN,NaN
46184.1133,7330.4780,7133.9839,7086.1509,-5825.8032,-5869.4116,-5794.0415,-5758.7480,7538.3936,8046.5605,44205.5586,16476.2305,-5791.5381,15711.2197,-5733.0884,16647.4902,8589.8867,23220.1992,7688.8882,30137.1914,15731.7832,21569.8789,4.639404,NaN,NaN,NaN
46184.1133,7330.4780,7133.9839,7086.1509,-5825.8032,-5869.4116,-5794.0415,-5758.7480,7538.3936,8046.5605,44205.5586,16476.2305,-5791.5381,15711.2197,-5733.0884,16647.4902,8589.8867,23220.1992,7688.8882,30137.1914,15731.7832,21569.8789,4.643402,NaN,NaN,NaN
104818.1250,5208.6270,5949.4756,4201.7031,-4740.3804,-4783.7646,-4709.9146,-4672.8330,6282.8740,6603.9346,43099.8828,13786.9805,-4705.6904,13385.0283,-4646.9722,15284.3232,7581.8901,21875.0918,6566.8081,28286.5332,14684.4697,20777.7793,4.647400,NaN,NaN,NaN
104818.1250,5208.6270,5949.4756,4201.7031,-4740.3804,-4783.7646,-4709.9146,-4672.8330,6282.8740,6603.9346,43099.8828,13786.9805,-4705.6904,13385.0283,-4646.9722,15284.3232,7581.8901,21875.0918,6566.8081,28286.5332,14684.4697,20777.7793,4.651398,NaN,NaN,NaN
143883.8438,2721.9507,5190.0972,-476.6509,-4041.7988,-4085.0271,-4012.4285,-3974.1624,5405.7021,5600.9224,42378.3008,11923.8955,-4007.2429,11699.9756,-3948.2566,14293.4033,6927.0513,20935.9609,5818.6729,27004.4160,13919.5703,20070.4805,4.655396,NaN,NaN,NaN
106403.7734,4590.6904,5979.7622,2387.0769,-4764.8555,-4808.2178,-4734.0322,-4696.9956,6200.3960,6500.4233,43079.1875,13486.4609,-4730.4561,13067.6787,-4671.7827,15102.8271,7580.8843,21789.4629,6559.2534,27891.5332,14567.6592,20483.9434,4.659393,NaN,NaN,NaN
106403.7734,4590.6904,5979.7622,2387.0769,-4764.8555,-4808.2178,-4734.0322,-4696.9956,6200.3960,6500.4233,43079.1875,13486.4609,-4730.4561,13067.6787,-4671.7827,15102.8271,7580.8843,21789.4629,6559.2534,27891.5332,14567.6592,20483.9434,4.663391,NaN,NaN,NaN
50272.2695,6734.1782,7144.4888,6401.4502,-5775.4448,-5818.8516,-5743.5039,-5708.0093,7465.7954,7945.1060,44138.2344,15952.8418,-5740.9785,15332.9609,-5682.6177,16457.4316,8539.3945,23133.0039,7666.0669,29283.3105,15641.1465,21375.0391,4.667389,NaN,NaN,NaN
50272.2695,6734.1782,7144.4888,6401.4502,-5775.4448,-5818.8516,-5743.5039,-5708.0093,7465.7954,7945.1060,44138.2344,15952.8418,-5740.9785,15332.9609,-5682.6177,16457.4316,8539.3945,23133.0039,7666.0669,29283.3105,15641.1465,21375.0391,4.671387,NaN,NaN,NaN
50105.6367,6464.6606,7151.6860,6265.2383,-5720.9512,-5764.3584,-5689.0552,-5653.5830,7536.9185,8028.8804,44145.5195,15934.5361,-5686.3730,15443.8477,-5628.0352,16545.2969,8524.3066,23194.7168,7687.7256,29031.3828,15725.1895,21557.9668,4.675385,NaN,NaN,NaN
108967.3438,1549.2440,5953.8340,892.0804,-4597.2397,-4640.7139,-4566.9531,-4529.5586,6276.4590,6569.9375,43035.5547,13204.9854,-4562.2593,13097.1162,-4503.6528,15166.8428,7506.3638,21851.6230,6567.9707,27063.9609,14677.0938,20767.8105,4.679382,NaN,NaN,NaN
108967.3438,1549.2440,5953.8340,892.0804,-4597.2397,-4640.7139,-4566.9531,-4529.5586,6276.4590,6569.9375,43035.5547,13204.9854,-4562.2593,13097.1162,-4503.6528,15166.8428,7506.3638,21851.6230,6567.9707,27063.9609,14677.0938,20767.8105,4.683380,NaN,NaN,NaN
148700.2031,-3299.5198,5188.7563,-3562.6892,-3894.8584,-3938.2207,-3865.4436,-3826.8645,5393.6099,5550.8096,42305.8398,11285.2617,-3859.1851,11381.0605,-3800.0647,14157.9521,6832.8164,20904.4004,5814.6050,25649.6309,13903.9248,20056.9570,4.687378,NaN,NaN,NaN
148700.2031,-3299.5198,5188.7563,-3562.6892,-3894.8584,-3938.2207,-3865.4436,-3826.8645,5393.6099,5550.8096,42305.8398,11285.2617,-3859.1851,11381.0605,-3800.0647,14157.9521,6832.8164,20904.4004,5814.6050,25649.6309,13903.9248,20056.9570,4.691376,NaN,NaN,NaN
112309.6016,-2519.2874,5956.2031,-3202.2673,-4605.7778,-4649.3638,-4575.4468,-4538.1416,6183.9229,6459.1846,42995.6367,12772.9707,-4571.1328,12703.8818,-4512.3477,14950.7461,7453.5464,21735.5293,6542.0425,26366.1387,14530.1084,20456.6738,4.695374,NaN,NaN,NaN
56952.5781,2033.3158,7065.6318,1416.8994,-5582.7056,-5626.2466,-5551.0332,-5515.2256,7428.7363,7871.9263,44021.2656,15153.1631,-5548.8652,14915.4082,-5490.4824,16269.0293,8379.8252,23060.7188,7639.8037,27587.5723,15582.9209,21334.4258,4.699371,NaN,NaN,NaN
56952.5781,2033.3158,7065.6318,1416.8994,-5582.7056,-5626.2466,-5551.0332,-5515.2256,7428.7363,7871.9263,44021.2656,15153.1631,-5548.8652,14915.4082,-5490.4824,16269.0293,8379.8252,23060.7188,7639.8037,27587.5723,15582.9209,21334.4258,4.703369,NaN,NaN,NaN
57119.9922,456.4673,7057.1382,775.5161,-5525.8877,-5569.4063,-5494.2598,-5458.3184,7500.4629,7948.1235,44018.6523,15088.9473,-5491.8457,15003.8096,-5433.3511,16342.9912,8347.5713,23121.2031,7663.8989,27206.7891,15660.5703,21515.0293,4.707367,NaN,NaN,NaN
116375.4688,-3658.0864,5874.1724,-3559.1128,-4398.8457,-4442.3198,-4368.2236,-4330.5610,6254.2637,6517.2544,42917.7617,12334.8994,-4363.6641,12650.2822,-4304.8115,14968.5156,7315.6138,21776.7676,6545.6855,25132.0547,14607.4453,20724.1797,4.711365,NaN,NaN,NaN
116375.4688,-3658.0864,5874.1724,-3559.1128,-4398.8457,-4442.3198,-4368.2236,-4330.5610,6254.2637,6517.2544,42917.7617,12334.8994,-4363.6641,12650.2822,-4304.8115,14968.5156,7315.6138,21776.7676,6545.6855,25132.0547,14607.4453,20724.1797,4.715363,NaN,NaN,NaN
156894.4063,-3507.9497,5078.1821,-3612.1089,-3636.4500,-3679.7898,-3606.9902,-3568.1653,5356.4834,5469.7847,42171.9727,10349.8184,-3600.0613,10896.7207,-3540.7844,13931.0820,6618.2617,20817.8320,5786.8887,23610.8848,13822.4072,20007.9180,4.719360,NaN,NaN,NaN
121441.6016,-4194.4609,5818.8071,-4284.6729,-4308.4102,-4351.8174,-4278.1685,-4240.4834,6132.6924,6355.0254,42845.6992,11767.0527,-4273.0054,12176.6260,-4214.0635,14695.8916,7200.0557,21630.3633,6504.8716,24213.6895,14431.4258,20397.0391,4.723358,NaN,NaN,NaN
66762.1563,-5191.7290,6927.2749,-5260.1250,-5284.4214,-5327.8062,-5252.9727,-5216.8076,7385.9995,7792.5107,43875.8242,14110.1191,-5249.5527,14370.3379,-5191.1030,16012.2979,8092.4043,22945.4727,7602.1411,25328.7285,15474.3799,21270.2090,4.727356,NaN,NaN,NaN
66762.1563,-5191.7290,6927.2749,-5260.1250,-5284.4214,-5327.8062,-5252.9727,-5216.8076,7385.9995,7792.5107,43875.8242,14110.1191,-5249.5527,14370.3379,-5191.1030,16012.2979,8092.4043,22945.4727,7602.1411,25328.7285,15474.3799,21270.2090,4.731354,NaN,NaN,NaN
67266.0078,-5093.9175,6882.9512,-5162.5376,-5186.7446,-5230.1294,-5155.3403,-5119.1304,7451.6021,7850.7368,43859.0625,13999.5010,-5151.7417,14435.0020,-5093.2026,16064.9355,8029.9531,23001.2402,7628.7397,24843.8730,15545.6152,21448.8906,4.735352,NaN,NaN,NaN
126931.4375,-3913.2092,5647.1235,-4005.2312,-4029.4158,-4072.7559,-3999.4868,-3961.3547,6204.6875,6406.5908,42745.9453,11201.6885,-3993.2285,12060.7549,-3934.2644,14673.6738,6966.7925,21651.2617,6511.1973,22650.0957,14487.6846,20658.2871,4.739349,NaN,NaN,NaN
133626.7500,-3711.2612,5474.1655,-3806.3008,-3830.4182,-3873.6465,-3800.9587,-3762.4019,6064.9893,6222.5020,42625.7148,10524.9668,-3793.8955,11512.6904,-3734.7529,14362.0234,6790.3257,21470.1016,6450.7803,21409.1484,14281.2217,20318.8301,4.743347,NaN,NaN,NaN
80316.5000,-4589.7295,6536.8345,-4663.7583,-4687.6079,-4731.0596,-4656.6729,-4619.6138,7382.3784,7719.4878,43625.4844,12691.5215,-4651.8672,13729.3350,-4593.1494,15706.0781,7598.2964,22814.5586,7562.0195,21754.9512,15362.9346,21357.4707,4.747345,NaN,NaN,NaN
181522.5781,-2501.0037,4433.2002,-2614.7739,-2642.1772,-2685.2715,-2613.5894,-2572.6633,5222.9541,5194.7910,41766.7148,7806.5923,-2602.1230,9549.8496,-2541.9521,13235.2725,5799.4951,20475.7832,5668.0444,17706.4707,13496.6758,19850.2715,4.751343,NaN,NaN,NaN
94538.6641,-3929.8164,6061.7036,-4009.3440,-4033.3274,-4076.8909,-4002.7949,-3964.7522,7276.4536,7505.9614,43387.3711,11266.8877,-3996.5811,12967.4531,-3937.7737,15241.0059,7099.4277,22563.5488,7467.8965,18196.3301,15125.4023,21267.5938,4.755341,NaN,NaN,NaN
154209.3125,-2699.6882,4820.9805,-2801.7910,-2828.5461,-2871.6851,-2799.5781,-2759.0769,6031.6401,6057.1660,42304.8984,8450.5908,-2788.4023,10604.8066,-2728.2986,13822.2734,6024.6890,21201.2773,6349.3032,15819.6475,14051.7588,20483.0938,4.759338,NaN,NaN,NaN
162653.8906,-2378.9631,4461.7656,-2482.7200,-2510.7043,-2553.7761,-2481.8481,-2440.7209,5830.1396,5782.1279,42149.7578,7647.4927,-2469.2195,9989.8438,-2408.8250,13404.9893,5759.4185,20928.4512,6233.7002,14222.8164,13767.2881,20123.3203,4.763336,NaN,NaN,NaN
109353.1328,-3341.2058,5472.1538,-3426.1870,-3451.6233,-3494.9856,-3421.6943,-3382.5789,7060.7817,7187.7622,43136.9219,9929.7178,-3412.9324,12125.8438,-3353.9238,14658.2285,6584.6895,22198.8125,7309.2212,15034.3193,14744.3057,20979.9277,4.767334,NaN,NaN,NaN
187500.0000,-1096.3307,3188.8562,-1197.2488,-1230.0835,-1272.8424,-1201.9650,-1158.6920,4943.3115,4663.9370,41263.5781,4934.9072,-1180.8650,8003.5557,-1118.3025,12140.0811,4570.1045,19833.9531,5402.2822,9906.0020,12803.9277,19645.1270,4.771332,NaN,NaN,NaN
176616.8594,-1658.2535,3721.7441,-1763.2620,-1793.8616,-1836.7322,-1765.3854,-1723.0065,5640.3506,5445.9351,41850.3320,6222.7476,-1748.2640,9158.6045,-1686.7073,12793.9590,5037.3677,20542.3477,6054.3052,10169.7529,13299.9131,19997.2773,4.775330,NaN,NaN,NaN
126682.0625,-2564.4827,4652.8730,-2656.1472,-2683.5950,-2726.8010,-2654.2024,-2613.5000,6945.1113,6911.7852,42834.2773,8416.7949,-2641.5737,11319.1465,-2582.2522,14050.1494,5724.8179,21833.0488,7155.7544,10340.8779,14225.3652,21033.9063,4.779327,NaN,NaN,NaN
180084.7188,-1313.7908,3343.0161,-1417.8158,-1449.3541,-1492.2247,-1421.2133,-1378.7897,5678.5273,5406.1938,41716.8906,5585.0527,-1148.4103,8921.0059,-1209.1846,12591.3633,4601.9336,20440.8262,6026.6782,7926.5093,13074.1162,20244.2871,4.783325,NaN,NaN,NaN
187500.0000,-464.2234,2317.5183,-565.9014,-599.1832,-642.3668,-571.9141,-529.9598,4709.7583,4258.6328,40907.4688,3469.1023,389.0321,7055.7749,216.6778,11450.3740,3768.2358,19379.8789,5195.3052,6044.0010,12147.1221,19497.2910,4.787323,NaN,NaN,NaN
187500.0000,-1086.2277,2833.5305,-1192.5326,-1224.0933,-1267.2097,-1196.1759,-1153.5065,5393.8335,5035.1997,41485.6875,4792.5269,-346.8990,8166.2544,-484.6082,12088.0908,4209.3477,20139.7930,5826.0488,6350.8901,12590.7822,19841.6426,4.791321,NaN,NaN,NaN
143119.5156,-2100.9075,3838.5320,-2199.3445,-2227.6865,-2270.9595,-2068.4526,-2154.8645,6599.2627,6390.9893,42464.2656,7121.0645,-2122.3875,10235.7803,-2087.8987,13300.0254,5013.1831,21470.0566,6885.0972,7278.1299,13493.9707,20688.7285,4.795319,NaN,NaN,NaN
143341.8438,-2052.0466,3780.5293,-2149.8130,-2164.7888,-2221.5398,-1362.6517,-2098.2476,6675.3257,6439.8726,42462.0781,7057.8535,-2024.1516,10260.8809,-1992.1886,13309.1670,4894.2051,21584.8105,6906.2866,6651.0967,13451.9502,20866.5605,4.799316,NaN,NaN,NaN
187500.0000,-903.0999,2478.6965,-998.7653,-732.7795,-1066.9381,-599.4738,-955.5370,5412.7207,4942.0376,41347.6172,4261.8516,-99.5994,7858.9180,-184.2678,11858.6279,3770.0239,20253.1152,5766.6606,4302.2637,12279.8018,20081.8340,4.803314,NaN,NaN,NaN
187500.0000,-160.6420,1432.7244,-216.6107,209.0112,-275.2617,-202.6856,-192.0462,4416.8389,3748.8120,40508.0664,2152.5623,602.2230,5990.5581,543.3485,10696.2930,2938.5391,19257.0098,4917.5176,2495.0134,11339.7324,19342.0371,4.807312,NaN,NaN,NaN
187500.0000,-804.3722,1946.6134,-900.1942,-500.3885,-969.3057,-650.6816,-861.4809,5077.5562,4499.7188,41062.5430,3500.0596,442.1398,7124.9087,301.7038,11326.2539,3393.5313,19983.6211,5529.2178,2909.5488,11767.0527,19689.4043,4.811310,NaN,NaN,NaN
158959.5469,-1855.9547,2983.0413,-1960.5833,-1957.2528,-2031.7734,438.4071,-1907.9225,6285.6230,5883.6050,42049.3984,5850.1221,-1482.9487,9241.3955,-1584.6715,12552.3145,4217.1929,21272.0195,6579.3696,3963.7913,12659.8936,20541.5430,4.815308,NaN,NaN,NaN
158479.6719,-1850.9255,2935.1863,-1955.4869,-1825.9363,-2025.2245,1789.6594,-1905.7991,6356.3442,5925.1343,42038.8242,5837.3813,-1386.8140,9288.5576,-1571.1935,12561.5684,4125.6401,21360.4668,6602.0347,3471.0918,12619.3477,20730.0352,4.819305,NaN,NaN,NaN
187500.0000,-791.4976,1644.5519,-888.4371,-70.8997,-952.0948,972.7255,-850.3944,5091.4590,4422.9854,40906.4414,3072.2024,540.0405,6907.0688,317.9312,11114.1367,3023.1404,20041.8242,5459.7485,1304.0677,11453.9502,19949.0879,4.823303,NaN,NaN,NaN
187500.0000,-136.2562,635.3707,-185.4748,342.7416,-226.6914,60.5732,-161.6478,4096.0913,3253.4976,40051.3984,1022.1229,623.0101,5055.4277,569.7012,9968.6094,2215.0801,19003.0723,4601.0840,-41.6860,10519.6914,19206.7637,4.827301,NaN,NaN,NaN
187500.0000,-136.2562,635.3707,-185.4748,342.7416,-226.6914,60.5732,-161.6478,4096.0913,3253.4976,40051.3984,1022.1229,623.0101,5055.4277,569.7012,9968.6094,2215.0801,19003.0723,4601.0840,-41.6860,10519.6914,19206.7637,4.831299,NaN,NaN,NaN
187500.0000,-773.9068,1181.5355,-866.3089,-392.5413,-929.5196,-140.8160,-820.1078,4729.8525,3977.7388,40574.8984,2447.6724,519.4098,6192.6846,351.2130,10589.0049,2701.9458,19702.5254,5200.2896,-893.4439,10970.1465,19547.6289,4.835297,NaN,NaN,NaN
171575.5781,-1881.7710,2256.4309,-1991.6521,-1969.7698,-2060.9648,766.5084,-1936.2645,5935.5947,5367.1230,41558.8438,4883.7217,-1469.7836,8354.8584,-1578.5919,11837.0586,3564.0525,20977.1113,6251.6265,-2021.9611,11904.7842,20405.5996,4.839294,NaN,NaN,NaN
170260.4063,-1949.1615,2220.2659,-2057.4333,-2078.8240,-2128.2659,1571.3947,-2003.6327,6026.8794,5456.5522,41566.9336,4930.1016,-1784.1609,8486.9795,-1848.5339,11886.4561,3510.6990,21064.9082,6282.2480,-2088.9270,11909.2549,20606.4297,4.843292,NaN,NaN,NaN
187500.0000,-887.8336,728.8904,-984.4825,-772.5880,-1056.3434,865.5936,-939.0191,4760.0049,3949.0837,40424.6055,2242.5728,174.3212,6143.1533,-56.0805,10446.4893,2443.5820,19733.4375,5145.5503,-1019.1725,10784.0684,19829.2383,4.847290,NaN,NaN,NaN
187500.0000,-190.8392,-167.8169,-266.0752,73.9843,-330.5599,-77.4041,-226.9820,3761.5303,2782.7026,39562.0938,352.2858,611.5660,4314.5571,535.7936,9315.3350,1674.6597,18673.8320,4284.7622,-292.6514,9879.6270,19083.7852,4.851288,NaN,NaN,NaN
187500.0000,-911.9735,-1009.5612,-1011.5729,-913.6052,-1082.0479,-896.7743,-967.7411,4406.9370,3556.2295,40100.3008,1784.5186,54.5606,5508.8779,-85.6966,9974.6445,2210.7886,19367.3613,4886.1357,-1043.3124,10360.0557,19421.1172,4.855286,NaN,NaN,NaN
180101.5000,-2066.1504,-2175.5623,-2176.1211,-2203.1443,-2247.1772,-1150.7572,-2123.7285,5610.3101,4947.6479,41086.1484,4291.7808,-1976.3412,7724.5391,-1982.9796,11240.0439,3125.4666,20648.8984,5940.4897,-2208.6428,11334.6367,20274.2832,4.859283,NaN,NaN,NaN
178079.2188,-2198.9868,-2308.1750,-2308.6445,-2336.3831,-2379.5667,-1110.4570,-2255.5591,5711.1162,5049.6167,41101.4805,4401.7290,-2287.5222,7915.7808,-2234.7498,11316.1963,3125.9138,20726.1914,5978.8457,-2341.1663,11389.1074,20471.0000,4.863281,NaN,NaN,NaN
187500.0000,-1182.3179,-1285.6947,-1286.8793,-1315.6013,-1358.5166,-1116.4249,-1241.9746,4463.3525,3591.0088,39975.5586,1692.4963,-910.5206,5635.7017,-1040.4513,9920.9551,2111.2563,19382.8965,4852.5190,-1319.2223,10304.8916,19695.1934,4.867279,NaN,NaN,NaN
187500.0000,-453.2039,-555.4855,-558.2125,-586.4650,-629.5592,-559.2183,-517.3535,3459.1335,2420.8057,39102.1641,-174.1648,353.2469,3859.7886,171.7731,8790.0020,1396.6710,18317.1641,4000.5151,-589.8849,9432.8828,18949.4063,4.871277,NaN,NaN,NaN
187500.0000,-1222.4392,-1325.0560,-1326.3077,-1354.9851,-1397.8110,-1326.9113,-1284.4207,4110.4858,3204.9719,39651.1211,1105.4055,-811.8600,5120.5835,-920.1766,9461.5605,1992.4568,18998.1543,4611.8130,-1359.0084,9954.5059,19288.6602,4.875275,NaN,NaN,NaN
184441.7344,-2409.1826,-2519.1755,-2519.7568,-2546.5789,-2589.7847,-2517.9238,-2477.0203,5338.2446,4647.9780,40669.0195,3993.9883,-2492.5322,7415.6382,-2442.2632,10765.1582,2961.8743,20270.2598,5679.9805,-2552.2561,10968.2910,20149.8516,4.879272,NaN,NaN,NaN
181904.6875,-2532.9443,-2642.8032,-2643.5183,-2670.0945,-2713.4346,-2641.2385,-2600.7148,5443.0073,4753.1875,40693.3398,4132.0327,-2630.6438,7669.3975,-2571.2551,10856.7783,3008.4329,20358.3926,5730.7188,-2675.9731,11056.4463,20355.9121,4.883270,NaN,NaN,NaN
187500.0000,-856.0718,-955.0676,-956.4535,-985.9131,-1028.5602,-958.1522,-914.8792,3220.3499,2181.2173,38723.0117,-747.7105,-937.3875,3695.3020,-874.0426,8380.3174,1354.5604,17951.8691,3769.3086,-990.5175,9154.1787,18820.4805,4.887268,NaN,NaN,NaN
187500.0000,-1585.3868,-1686.2603,-1687.0426,-1715.6305,-1758.4564,-1687.2885,-1644.7307,3874.6970,2969.5857,39276.8633,320.3676,-1671.3517,4952.2749,-1609.6384,9061.7988,1963.1313,18633.7773,4394.2632,-1720.5479,9694.7109,19148.4258,4.891266,NaN,NaN,NaN
185983.2969,-2765.5142,-2875.0154,-2875.5295,-2902.0610,-2945.3787,-2873.1155,-2832.9270,5111.7988,4422.5386,40304.7305,3793.2920,-2863.7500,7261.0308,-2804.4956,10385.0000,2087.1165,19903.0215,5475.9092,-2908.5876,10734.4248,20002.2852,4.895264,NaN,NaN,NaN
183100.0469,-2916.1873,-3025.9121,-3026.4707,-3052.6895,-3096.0742,-3023.6768,-2983.9355,5240.5674,4576.2065,40355.0898,4048.7725,-3015.0713,7543.0654,-2956.1746,10517.7246,1404.0471,19986.8398,5541.4888,-3059.4172,10849.1787,20203.8086,4.899261,NaN,NaN,NaN
187500.0000,-1918.9642,-2020.3518,-2020.8435,-2048.9844,-2091.8774,-2020.3965,-1978.3976,4008.2263,3131.9487,39245.7969,483.2000,-2006.9855,5330.5107,-1945.8757,9152.9941,1672.6033,18660.5996,4439.1455,-2054.3711,9812.7734,19427.1074,4.903259,NaN,NaN,NaN
187500.0000,-1918.9642,-2020.3518,-2020.8435,-2048.9844,-2091.8774,-2020.3965,-1978.3976,4008.2263,3131.9487,39245.7969,483.2000,-2006.9855,5330.5107,-1945.8757,9152.9941,1672.6033,18660.5996,4439.1455,-2054.3711,9812.7734,19427.1074,4.907257,NaN,NaN,NaN
187500.0000,-1226.3507,-1324.8102,-1325.4360,-1354.8956,-1397.4980,-1326.8219,-1283.3253,3020.6147,2006.2925,38397.4141,-1183.6143,-1309.8345,3569.5957,-1246.3779,8041.7773,1425.6836,17595.8730,3588.4832,-1360.6847,8968.9053,18662.0742,4.911255,NaN,NaN,NaN
187500.0000,-1226.3507,-1324.8102,-1325.4360,-1354.8956,-1397.4980,-1326.8219,-1283.3253,3020.6147,2006.2925,38397.4141,-1183.6143,-1309.8345,3569.5957,-1246.3779,8041.7773,1425.6836,17595.8730,3588.4832,-1360.6847,8968.9053,18662.0742,4.915253,NaN,NaN,NaN
187500.0000,-1949.8320,-2050.1467,-2050.5938,-2078.8240,-2121.6499,-2050.1467,-2008.0359,3684.5286,2825.9980,38968.3867,-424.6384,-2037.0933,4827.1719,-1975.9165,8728.5352,1135.8485,18267.3418,4208.2300,-2084.5012,9513.3271,18982.4863,4.919250,NaN,NaN,NaN
186308.9531,-3083.8701,-3193.1255,-3193.5500,-3219.7910,-3263.0864,-3190.7336,-3151.1265,4921.3848,4272.6699,39999.3633,3603.3694,-3182.7988,7137.2695,-3124.1033,10051.6016,-336.6172,19550.3105,5300.2466,-3227.1001,10559.9248,19834.9824,4.923248,NaN,NaN,NaN
186308.9531,-3083.8701,-3193.1255,-3193.5500,-3219.7910,-3263.0864,-3190.7336,-3151.1265,4921.3848,4272.6699,39999.3633,3603.3694,-3182.7988,7137.2695,-3124.1033,10051.6016,-336.6172,19550.3105,5300.2466,-3227.1001,10559.9248,19834.9824,4.927246,NaN,NaN,NaN
183210.6250,-3233.2021,-3342.8596,-3343.3516,-3369.3242,-3412.7312,-3340.2668,-3300.9502,5059.8760,4432.5298,40059.4414,4011.2217,-3333.0027,7431.7534,-3274.3516,10193.5352,-1165.3976,19658.6484,5377.2930,-3376.9238,10684.6924,20038.9199,4.931244,NaN,NaN,NaN
183210.6250,-3233.2021,-3342.8596,-3343.3516,-3369.3242,-3412.7312,-3340.2668,-3300.9502,5059.8760,4432.5298,40059.4414,4011.2217,-3333.0027,7431.7534,-3274.3516,10193.5352,-1165.3976,19658.6484,5377.2930,-3376.9238,10684.6924,20038.9199,4.935242,NaN,NaN,NaN
187500.0000,-2255.9392,-2356.9243,-2357.2373,-2385.0652,-2428.0923,-2356.2314,-2314.7019,3853.3513,3031.6118,38974.0664,-24.6093,-2345.1003,5235.5605,-2284.3259,8854.8447,-578.4855,18344.5234,4289.3667,-2391.1672,9661.0049,19266.5332,4.939240,NaN,NaN,NaN
187500.0000,-1532.1674,-1630.4927,-1630.8279,-1660.0416,-1702.8676,-1631.5432,-1588.4043,2878.9270,1905.7544,38130.3086,-1517.4598,-1617.6180,3464.5874,-1554.2285,7750.9141,281.8331,17294.8848,3467.3813,-1666.5013,8822.0986,18501.5000,4.943237,NaN,NaN,NaN
187500.0000,-1532.1674,-1630.4927,-1630.8279,-1660.0416,-1702.8676,-1631.5432,-1588.4043,2878.9270,1905.7544,38130.3086,-1517.4598,-1617.6180,3464.5874,-1554.2285,7750.9141,281.8331,17294.8848,3467.3813,-1666.5013,8822.0986,18501.5000,4.947235,NaN,NaN,NaN
187500.0000,-2216.9800,-2341.6804,-2342.1052,-2369.9106,-2413.0049,-2341.1216,-2299.5027,3553.9497,2729.2820,38705.8203,-935.2193,-2330.0798,4706.1372,-2269.0820,8442.9463,-614.5612,17983.4082,4105.4116,-2376.5269,9364.5762,18817.4180,4.951233,NaN,NaN,NaN
187500.0000,-2216.9800,-2341.6804,-2342.1052,-2369.9106,-2413.0049,-2341.1216,-2299.5027,3553.9497,2729.2820,38705.8203,-935.2193,-2330.0798,4706.1372,-2269.0820,8442.9463,-614.5612,17983.4082,4105.4116,-2376.5269,9364.5762,18817.4180,4.955231,NaN,NaN,NaN
186682.3906,-2257.7720,-3476.2549,-3476.8809,-3502.4287,-3545.8135,-3473.5056,-3434.3901,4807.0776,4213.1470,39755.6172,3430.5457,-3466.8896,7021.3755,-3408.2832,9783.1123,-2185.5759,19277.3516,5203.7539,-3511.0566,10414.9961,19668.9766,4.959229,NaN,NaN,NaN
186682.3906,-2257.7720,-3476.2549,-3476.8809,-3502.4287,-3545.8135,-3473.5056,-3434.3901,4807.0776,4213.1470,39755.6172,3430.5457,-3466.8896,7021.3755,-3408.2832,9783.1123,-2185.5759,19277.3516,5203.7539,-3511.0566,10414.9961,19668.9766,4.963226,NaN,NaN,NaN
183396.1406,-1917.1985,-3590.4053,-3591.0981,-3616.3333,-3659.8074,-3587.4995,-3548.6746,4946.5752,4367.5532,39815.2969,3991.8203,-3581.3528,7323.1689,-3522.9924,9925.6270,-2522.5508,19394.9648,5290.5908,-3625.3186,10549.4863,19876.9355,4.967224,NaN,NaN,NaN
187500.0000,-2399.7278,-2604.5146,-2604.9617,-2632.2085,-2675.5261,-2603.4194,-2562.3145,3742.3301,2874.5012,38725.9141,-426.8960,-2593.5176,5134.4863,-2533.4360,8587.1602,-1951.6873,18082.9844,4207.1348,-2639.3833,9529.3086,19104.6621,4.971222,NaN,NaN,NaN
187500.0000,-2399.7278,-2604.5146,-2604.9617,-2632.2085,-2675.5261,-2603.4194,-2562.3145,3742.3301,2874.5012,38725.9141,-426.8960,-2593.5176,5134.4863,-2533.4360,8587.1602,-1951.6873,18082.9844,4207.1348,-2639.3833,9529.3086,19104.6621,4.975220,NaN,NaN,NaN
187500.0000,-1778.8635,-1876.8088,-1877.0547,-1905.8214,-1949.0497,-1877.1665,-1834.5417,2771.0352,1021.6535,37887.5000,-1778.6624,-1864.6049,3367.4019,-1802.3105,7489.3096,-1254.2904,17031.1348,3385.2834,-1913.5775,8687.9883,18335.0469,4.979218,NaN,NaN,NaN
187500.0000,-2338.4617,-2546.9141,-2547.3835,-2574.8538,-2618.0374,-2545.8188,-2504.7363,3440.7380,2146.2368,38446.6094,-1259.2972,-2535.8501,4601.6206,-2475.6567,8165.4272,-1741.6255,17720.5742,4024.3420,-2582.3193,9229.1914,18646.1367,4.983215,NaN,NaN,NaN
187500.0000,-2338.4617,-2546.9141,-2547.3835,-2574.8538,-2618.0374,-2545.8188,-2504.7363,3440.7380,2146.2368,38446.6094,-1259.2972,-2535.8501,4601.6206,-2475.6567,8165.4272,-1741.6255,17720.5742,4024.3420,-2582.3193,9229.1914,18646.1367,4.987213,NaN,NaN,NaN
187153.9063,-1326.4866,-3678.0688,-3678.9854,-3704.4438,-3747.6050,-3675.7891,-3636.9192,4708.5063,4132.0776,39490.3672,3316.7529,-3670.8269,6927.4980,-3612.0195,9506.7334,-3218.4500,19023.8828,5129.3677,-3713.8540,10286.1387,19499.7051,4.991211,NaN,NaN,NaN
183830.3281,-792.9281,-3802.9033,-3803.9763,-3829.8596,-3873.0208,-3801.3386,-3762.7820,4869.4390,4334.8076,39562.6328,3976.6882,-3796.8684,7252.1797,-3737.8821,9670.7275,-3624.2234,19153.8574,5224.1167,-3839.2026,10429.3906,19712.4941,4.995209,NaN,NaN,NaN
187500.0000,-2398.7668,-2790.6821,-2791.0176,-2817.9514,-2861.2244,-2789.0730,-2748.5269,3661.6626,2090.6704,38465.9648,-709.4667,-2780.2664,5064.7710,-2720.5649,8330.4727,-2710.1265,17853.0527,4148.5732,-2826.3110,9417.6387,18945.6504,4.999207,NaN,NaN,NaN
187500.0000,-1960.1586,-2057.9697,-2058.1709,-2086.4905,-2129.9199,-2057.8579,-2015.5908,2698.2578,-1152.6123,37623.2148,-1966.3053,-2046.8386,3286.1086,-1984.7678,7228.9785,-1995.4296,16804.8008,3329.7168,-2093.1738,8577.6826,18176.3262,5.003204,NaN,NaN,NaN
187500.0000,-430.9640,-3831.3347,-3832.0723,-3856.7710,-3900.5134,-3829.1665,-3790.6545,4637.0479,3780.5515,39235.2227,3208.3245,-3822.8411,6826.1333,-3765.2629,9252.0127,-3735.6917,18799.4707,5080.6855,-3868.1257,10176.7715,19340.1367,5.007202,NaN,NaN,NaN
187500.0000,-2081.1709,-2178.8032,-2178.9822,-2207.1899,-2250.5300,-2178.4902,-2136.3574,2645.6194,-1761.1162,37382.6445,-2092.1455,-2168.4321,3187.8950,-2106.4282,6983.8916,-2126.6790,16581.5508,3290.5566,-2215.0354,8471.3105,18018.3223,5.011200,NaN,NaN,NaN
187500.0000,28.8561,-3965.0205,-3965.7805,-3991.4402,-4035.0486,-3961.8242,-3923.8486,4584.5215,2755.6570,39005.3555,2859.5928,-3957.4209,6721.3481,-3899.6863,9013.1846,-3911.3093,18574.4785,5041.5698,-3908.2471,10063.1348,19174.8008,5.015198,NaN,NaN,NaN
187500.0000,-2214.8342,-2312.4443,-2312.7573,-2340.6970,-2384.1711,-2311.8186,-2270.0430,2614.1257,-2103.5002,37160.5352,-2227.3513,-2303.0120,3084.2725,-2241.0530,6755.9487,-2258.6885,16366.4160,3263.3770,-2350.6658,8362.7256,17857.7246,5.019196,NaN,NaN,NaN
187500.0000,-2501.6965,-2946.9209,-2947.5691,-2974.3242,-3017.6194,-2945.2893,-2904.8772,3275.1340,-1936.0410,37713.5391,-2022.2069,-2937.7568,4276.2017,-2877.9883,7418.3203,-2892.6509,17047.0273,3898.8816,-2977.7664,8890.1377,18155.9199,5.023193,NaN,NaN,NaN
186482.2344,748.8505,-4180.1113,-4180.7148,-4206.2183,-4249.7148,-4176.5576,-4138.9170,4717.5142,2445.5491,38854.0117,3752.5671,-4172.7578,6949.5815,-4115.0454,8952.7900,-4134.1563,18506.6621,5127.7583,-3248.3342,10107.1006,19230.5020,5.027191,NaN,NaN,NaN
187500.0000,-2295.9265,-3157.2732,-3157.9885,-3184.4082,-3227.7930,-3155.2168,-3115.3638,3537.6104,-916.3321,37770.0000,-1381.6506,-3148.2878,4779.8979,-3088.9885,7628.6279,-3111.6980,17218.6211,4067.7043,-3119.1411,9106.3018,18472.6660,5.031189,NaN,NaN,NaN
187500.0000,-2603.3298,-3039.7478,-3040.3735,-3067.0168,-3110.4016,-3037.8701,-2997.7041,3250.2117,-2380.7290,37481.0117,-2203.5691,-3031.1646,4158.6982,-2971.3066,7185.7056,-2987.3999,16833.7695,3876.8877,-3057.5398,8780.1221,17990.3828,5.035187,NaN,NaN,NaN
187500.0000,-59.1204,-4127.3613,-4128.1885,-4153.4233,-4196.8975,-4124.2095,-4086.2341,4504.3013,150.6284,38524.7734,2491.9736,-4120.1416,6473.0200,-4062.8765,8527.9951,-4081.4285,18148.9902,4995.0562,-3124.2598,9842.7695,18844.0391,5.039185,NaN,NaN,NaN
187500.0000,-2488.0173,-3251.4187,-3252.0894,-3278.4197,-3321.7598,-3249.1611,-3209.4868,3527.5522,-1546.8077,37550.6406,-1691.0435,-3242.6345,4667.0664,-3183.7600,7414.8110,-3206.0000,17025.5684,4061.0437,-3163.6882,9013.8320,18318.9531,5.043182,NaN,NaN,NaN
187500.0000,-2365.3508,-2462.4692,-2462.8044,-2490.4761,-2533.9949,-2461.5305,-2420.1128,2517.1416,-2332.8291,36687.2578,-2380.7290,-2450.5781,2640.9033,-2392.0166,6285.3999,-2417.0281,15961.5361,3233.1575,-2501.4060,8159.3921,17537.7598,5.047180,NaN,NaN,NaN
187500.0000,-108.3389,-4199.3560,-4200.2056,-4225.5747,-4269.0488,-4196.1377,-4158.3853,4479.6025,-659.4658,38300.2266,2294.2278,-4192.6284,6349.7280,-4135.1621,8305.5723,-4154.2280,17952.0039,4983.1426,-2741.9331,9744.5557,18683.8672,5.051178,NaN,NaN,NaN
187500.0000,710.3831,-4311.6963,-4312.4336,-4337.3560,-4380.8745,-4308.3433,-4270.8818,4672.2295,418.4023,38390.3945,3533.4978,-4304.4766,6715.5591,-4247.5244,8496.5459,-4266.4785,18118.2793,5111.3521,-2193.0859,9917.2227,18917.1309,5.055176,NaN,NaN,NaN
187500.0000,-2483.9717,-3317.9822,-3318.5635,-3344.8044,-3388.1221,-3315.8142,-3276.2068,3403.8799,-2062.1272,37320.9531,-1742.0278,-3308.6169,4436.6870,-3250.6812,7191.6733,-3272.6753,16839.6465,4058.8083,-3158.6589,8925.1855,18166.5586,5.059174,NaN,NaN,NaN
187500.0000,-2441.7939,-2538.9121,-2539.2029,-2566.8518,-2610.4155,-2537.9734,-2496.5110,1804.8586,-2424.3372,36465.3945,-2457.5295,-2523.6235,1403.8906,-2468.7725,6071.2476,-2492.2195,15770.2285,3228.0613,-2577.9607,8067.0347,17383.1973,5.063171,NaN,NaN,NaN
187500.0000,-2736.0994,-3142.9905,-3143.4822,-3170.3489,-3213.7114,-3141.0906,-3100.9915,2358.1089,-2863.9512,37002.1055,-2441.6821,-3131.5911,3352.4934,-3075.1306,6714.5532,-3095.8506,16432.5098,3849.4619,-3127.8359,8578.3984,17666.4160,5.067169,NaN,NaN,NaN
187500.0000,-338.5619,-4255.8389,-4256.6436,-4282.1694,-4325.5317,-4252.6875,-4214.9575,4208.3862,-1587.5103,38058.1563,2151.0425,-4248.8877,6214.1426,-4191.4438,8072.9580,-4211.1577,17752.0684,4972.2793,-2696.5591,9643.2129,18520.9668,5.071167,NaN,NaN,NaN
187500.0000,490.8666,-4391.3130,-4391.9390,-4416.6597,-4460.1338,-4387.6919,-4350.3647,4656.4941,-420.0340,38169.5352,3457.0996,-4384.0039,6602.6382,-4327.2080,8288.8984,-4346.1177,17928.2891,5110.1899,-2144.5828,9824.1279,18761.8965,5.075165,NaN,NaN,NaN
187500.0000,-2512.9841,-3375.6721,-3376.1414,-3402.2483,-3445.6331,-3373.1462,-3333.7625,3143.5940,-2378.5833,37095.0195,-1818.0908,-3365.9490,4062.0718,-3308.5273,6978.8403,-3330.4099,16653.0332,4060.7083,-3196.3440,8833.9229,18013.4258,5.079163,NaN,NaN,NaN
187500.0000,-2501.7412,-2598.9043,-2599.2620,-2626.7993,-2670.3406,-2597.8313,-2556.5479,859.4469,-2492.4653,36234.3672,-2517.8792,-2585.0239,-186.0336,-2529.1445,5852.1558,-2553.0386,15580.6182,3226.8989,-2638.0645,7971.5259,17227.5625,5.083160,NaN,NaN,NaN
187500.0000,-2501.7412,-2598.9043,-2599.2620,-2626.7993,-2670.3406,-2597.8313,-2556.5479,859.4469,-2492.4653,36234.3672,-2517.8792,-2585.0239,-186.0336,-2529.1445,5852.1558,-2553.0386,15580.6182,3226.8989,-2638.0645,7971.5259,17227.5625,5.087158,NaN,NaN,NaN
187500.0000,-2779.0818,-3216.3936,-3217.0642,-3243.7297,-3287.0920,-3214.4490,-3174.4617,1348.3019,-3013.5068,36785.1133,-2540.8345,-3205.4412,2407.3499,-3149.0479,6508.1348,-3168.0466,16242.9229,3848.9927,-3172.4500,8482.4648,17510.9141,5.091156,NaN,NaN,NaN
187500.0000,-228.5019,-4305.5942,-4306.3765,-4331.7681,-4375.1973,-4302.4199,-4264.8022,3618.1663,-2228.8936,37836.3164,2059.6685,-4298.3296,6072.9463,-4241.4893,7859.8564,-4260.3765,17565.9453,4974.4697,-2220.9587,9549.5361,18366.3613,5.095154,NaN,NaN,NaN
187500.0000,508.8598,-4456.0659,-4456.8481,-4481.9492,-4525.4907,-4452.7803,-4415.5645,4390.7764,-1358.2261,37950.4883,3344.2456,-4449.0029,6482.6987,-4392.3857,8079.4175,-4411.3623,17748.7148,5116.4707,-1487.9332,9734.6318,18609.6367,5.099152,NaN,NaN,NaN
187500.0000,-2665.9373,-3463.9167,-3464.7886,-3491.0295,-3534.3694,-3461.6592,-3422.4543,2363.3394,-2827.0933,36892.6250,-2024.0398,-3454.4397,3699.0125,-3397.5544,6787.3975,-3419.3474,16478.4648,4070.0737,-3166.8845,8748.0703,17863.9160,5.103149,NaN,NaN,NaN
187500.0000,-2665.9373,-3463.9167,-3464.7886,-3491.0295,-3534.3694,-3461.6592,-3422.4543,2363.3394,-2827.0933,36892.6250,-2024.0398,-3454.4397,3699.0125,-3397.5544,6787.3975,-3419.3474,16478.4648,4070.0737,-3166.8845,8748.0703,17863.9160,5.107147,NaN,NaN,NaN
187500.0000,-2565.2202,-2661.8020,-2662.2939,-2689.6748,-2733.2158,-2660.5728,-2619.6689,-85.6966,-2558.4924,36019.5234,-2581.7158,-2649.8662,-976.2571,-2592.6682,5646.1846,-2616.9868,15402.0498,3232.0173,-2701.1411,7882.6108,17075.1445,5.111145,NaN,NaN,NaN
187500.0000,-2856.2847,-3274.3069,-3274.9998,-3301.6655,-3345.0725,-3272.2505,-3232.7104,366.3451,-3104.4114,36560.9922,-2643.1606,-3262.9968,1772.6945,-3207.3857,6292.3066,-3229.5588,16058.2529,3848.3667,-3171.1313,8388.6992,17353.6934,5.115143,NaN,NaN,NaN
187500.0000,-230.2453,-4378.6172,-4379.3994,-4405.0371,-4448.4888,-4375.4434,-4338.0488,2623.2900,-2711.4900,37624.4883,1962.7960,-4371.4648,5917.2666,-4314.9146,7659.9648,-4333.8467,17383.1738,4975.5654,-1729.1085,9458.0732,18209.4961,5.119141,NaN,NaN,NaN
187500.0000,700.0790,-4512.8843,-4513.6216,-4538.8794,-4582.3535,-4509.6655,-4472.3604,3575.5190,-1986.0195,37733.7461,3396.2581,-4505.7988,6362.2676,-4449.2485,7878.5200,-4468.2031,17573.8574,5123.4219,-776.3431,9649.9854,18456.9082,5.123138,NaN,NaN,NaN
187500.0000,-2635.6060,-3536.6270,-3537.3198,-3563.5833,-3607.0574,-3534.2578,-3495.1646,1332.1639,-3062.2783,36674.8320,-2047.8444,-3527.2393,3162.5034,-3470.3540,6590.1880,-3492.0352,16310.8721,4081.8755,-3057.6514,8669.8838,17716.4609,5.127136,NaN,NaN,NaN
187500.0000,-2645.1052,-2742.0449,-2742.4919,-2769.7610,-2813.3916,-2740.6589,-2699.8894,-1145.0798,-2640.0540,35805.2813,-2662.2268,-2731.3608,-1654.6772,-2673.3579,5454.2725,-2697.1848,15227.7734,3236.9795,-2781.0264,7798.5459,16922.6172,5.131134,NaN,NaN,NaN
187500.0000,-2910.1970,-3327.1465,-3327.7722,-3354.2815,-3397.7109,-3324.8665,-3285.3486,-545.2484,-3209.0623,36332.0430,-2730.0867,-3315.9705,996.2842,-3260.2478,6085.1504,-3282.3982,15879.1709,3848.6125,-3174.3276,8300.4316,17196.8281,5.135132,NaN,NaN,NaN
187500.0000,-462.4576,-4447.1475,-4447.8853,-4473.0757,-4516.5273,-4443.6162,-4406.3110,1528.6134,-3475.4055,37392.3867,1803.3163,-4439.7046,5709.3955,-4383.3560,7452.9878,-4402.4219,17205.8809,4977.4204,-1469.4037,9371.4824,18053.4590,5.139130,NaN,NaN,NaN
187500.0000,405.9300,-4604.1465,-4604.7720,-4629.9180,-4673.3921,-4600.8384,-4563.7119,2376.8174,-2853.5129,37517.1797,3296.5693,-4597.0605,6241.7915,-4540.5781,7690.3184,-4559.7109,17401.9492,5130.1943,-581.4359,9568.2002,18305.0059,5.143127,NaN,NaN,NaN
187500.0000,-2699.0178,-3602.4753,-3603.1458,-3629.2749,-3672.6597,-3600.0166,-3560.9458,387.4228,-3262.2817,36450.6641,-2135.4631,-3592.5063,2677.0906,-3536.3364,6394.6104,-3558.2412,16140.1719,4090.6597,-3006.9131,8589.4844,17566.1914,5.147125,NaN,NaN,NaN
187500.0000,-2713.4124,-2810.3071,-2810.7095,-2837.9114,-2881.4526,-2808.8096,-2768.0847,-2004.1467,-2712.2947,35579.1016,-2730.8467,-2799.9805,-2046.9503,-2741.9331,5256.1021,-2765.5813,15056.2686,3246.6577,-2848.9309,7717.9229,16774.0234,5.151123,NaN,NaN,NaN
187500.0000,-3002.3979,-3399.9460,-3400.5720,-3426.9023,-3470.1753,-3397.6216,-3358.1260,-1551.6133,-3296.8374,36115.7461,-2842.1582,-3388.3455,280.9167,-3333.5166,5895.0044,-3355.4885,15702.0996,3855.1169,-3247.1943,8214.6455,17045.3945,5.155121,NaN,NaN,NaN
187500.0000,-711.5677,-4495.5840,-4496.3662,-4521.3999,-4564.7627,-4491.9629,-4454.7471,707.5892,-3890.4329,37170.5703,1651.9950,-4487.5371,5443.9014,-4431.9932,7255.7783,-4451.2603,17031.0000,4986.6738,-1526.8477,9285.7637,17902.6074,5.159119,NaN,NaN,NaN
187500.0000,-94.4585,-4669.0781,-4669.8604,-4694.9614,-4738.3687,-4665.3901,-4628.5767,1422.7778,-3571.5627,37298.7813,3105.1936,-4661.9478,6088.7490,-4605.8896,7498.2056,-4624.6650,17232.5918,5145.2373,-878.0435,9485.5879,18157.4395,5.163116,NaN,NaN,NaN
187500.0000,-2754.8972,-2851.0095,-2851.6130,-2878.6140,-2922.2893,-2849.4897,-2808.9661,-2309.0244,-2756.8418,35369.0625,-2772.4209,-2841.5100,-2375.1409,-2783.1721,5068.5708,-2806.4180,14888.2949,3265.0310,-2890.1699,7634.5288,16629.6973,5.167114,NaN,NaN,NaN
187500.0000,-1294.5907,-4551.5972,-4552.5137,-4577.7041,-4621.0439,-4547.8423,-4510.7832,-59.0533,-4084.0212,36963.7031,1477.5173,-4543.2378,5111.4639,-4488.4312,7072.5610,-4507.7656,16857.4395,4963.9648,-2398.8115,9194.6357,17751.7988,5.171112,NaN,NaN,NaN
187500.0000,-550.9481,-4699.3647,-4700.1025,-4725.2256,-4768.6104,-4695.7437,-4658.9082,926.4351,-3830.5747,37085.6563,3071.1965,-4692.4805,5924.4414,-4636.3999,7310.2720,-4655.4658,17064.2383,5144.0972,-1781.7469,9398.3047,18009.6484,5.175110,NaN,NaN,NaN
187500.0000,-3087.5806,-3714.5022,-3715.2622,-3741.4583,-3784.9102,-3711.8870,-3673.0845,-935.5993,-3543.8020,36033.2227,-2395.6599,-3704.6003,1565.4268,-3649.1904,6030.8135,-3670.4917,15807.6221,4129.2837,-3430.0762,8422.5391,17275.5742,5.179108,NaN,NaN,NaN
187500.0000,-2798.2371,-2894.0813,-2894.6401,-2921.7305,-2965.3164,-2892.5837,-2852.0378,-2547.6741,-2802.1487,35155.6289,-2815.7832,-2884.9619,-2566.0024,-2826.5791,4883.4985,-2849.7131,14711.6045,3275.8044,-2933.2639,7540.1597,16476.3203,5.183105,NaN,NaN,NaN
187500.0000,-3198.0874,-3452.8975,-3453.6125,-3480.0771,-3523.4395,-3450.6174,-3411.2561,-2431.2439,-3356.6060,35668.3750,-2965.7859,-3442.3474,-1026.5933,-3387.0938,5496.8301,-3408.7527,15344.1143,3873.0879,-3450.0811,8025.1255,16737.5215,5.187103,NaN,NaN,NaN
187500.0000,-1717.1281,-4569.9033,-4570.7305,-4595.8760,-4639.3501,-4566.4390,-4529.3350,-568.7849,-4267.8867,36733.1680,1366.8762,-4561.3428,4726.9692,-4506.7148,6873.1611,-4526.1387,16678.0664,4916.1318,-3253.7434,9099.8643,17596.6563,5.191101,NaN,NaN,NaN
187500.0000,-1006.0967,-4739.7319,-4740.5366,-4765.5483,-4809.0225,-4736.1782,-4699.4990,352.3082,-4073.0688,36871.1445,3017.7983,-4732.8027,5742.6099,-4676.9683,7131.2793,-4696.1235,16891.7930,4986.3164,-2831.7646,9309.3672,17858.8418,5.195099,NaN,NaN,NaN
187500.0000,-3161.6318,-3737.6587,-3738.4409,-3764.6594,-3808.0442,-3735.1328,-3696.4644,-1293.0930,-3579.3411,35814.2227,-2398.3198,-3727.6226,1076.9293,-3672.6375,5848.8477,-3693.8716,15642.0186,4128.2104,-3606.8784,8340.1289,17130.1758,5.199097,NaN,NaN,NaN
187500.0000,-2826.0874,-2922.1106,-2922.6470,-2949.5583,-2993.1443,-2920.4119,-2879.9551,-2635.5388,-2830.0659,34930.9922,-2843.6782,-2913.0803,-2702.6387,-2854.6753,4695.9004,-2877.6753,14544.4580,3291.9424,-2961.2036,7457.1006,16330.8320,5.203094,NaN,NaN,NaN
187500.0000,-3252.0000,-3490.1353,-3490.8506,-3516.9575,-3560.2080,-3487.2520,-3447.9575,-2696.8049,-3394.4253,35451.9453,-3018.5359,-3479.9878,-1622.5577,-3424.3765,5317.1445,-3445.9683,15172.5645,3881.3357,-3508.0837,7938.1992,16588.3906,5.207092,NaN,NaN,NaN
187500.0000,-1778.1035,-4583.3369,-4584.1636,-4609.2871,-4652.4932,-4579.4478,-4542.3213,-977.7994,-4376.0244,36507.3047,1305.0959,-4574.4185,4263.3491,-4520.1709,6683.1714,-4539.8179,16506.2715,4959.4272,-3529.4968,9011.1279,17444.7305,5.211090,NaN,NaN,NaN
187500.0000,-1070.8049,-4773.2598,-4774.0864,-4799.0757,-4842.3711,-4769.6611,-4732.9146,-194.1696,-4362.7700,36652.5234,2976.9392,-4766.1069,5537.2422,-4710.4512,6950.1182,-4729.8076,16730.9277,4960.1426,-3134.8545,9229.5488,17714.3379,5.215088,NaN,NaN,NaN
187500.0000,-3257.4761,-3791.0122,-3791.7722,-3817.9236,-3861.2637,-3788.3970,-3749.7510,-1801.3047,-3659.8745,35612.7656,-2516.5159,-3780.4846,577.9267,-3726.0803,5685.7695,-3747.1804,15485.4668,4007.2876,-3689.7588,8264.4004,16989.7383,5.219086,NaN,NaN,NaN
187500.0000,-2853.4236,-2949.2456,-2949.8042,-2976.6711,-3020.3687,-2947.5022,-2907.2019,-2732.7688,-2858.6091,34718.5156,-2871.4167,-2940.4165,-2802.8640,-2882.1902,4519.3662,-2904.8550,14383.2354,3303.2300,-2988.2939,7377.7520,16187.9824,5.223083,NaN,NaN,NaN
187500.0000,-3262.3264,-3520.6230,-3521.4502,-3547.9146,-3591.3218,-3518.3657,-3479.2278,-3018.8264,-3427.4612,35232.0703,-3045.2017,-3510.8777,-2223.3057,-3455.2666,5131.7817,-3476.7913,15003.7197,3830.2620,-3541.3208,7852.5923,16440.3555,5.227081,NaN,NaN,NaN
187500.0000,-1660.3098,-4633.4272,-4634.3433,-4659.6235,-4703.0527,-4629.9849,-4593.0820,-1654.9231,-4443.0127,36303.7227,1316.4954,-4623.8159,3509.6260,-4570.4399,6515.8462,-4590.0869,16340.7119,4669.4805,-3620.5801,8928.2256,17299.1992,5.231079,NaN,NaN,NaN
187500.0000,-835.2176,-4803.2554,-4804.0601,-4829.1167,-4872.4790,-4799.5454,-4762.9556,-699.3414,-4477.5459,36444.3828,3095.5154,-4796.0361,5260.0137,-4740.6035,6779.1274,-4759.8262,16570.3750,4825.9204,-3122.1362,9149.6865,17570.8184,5.235077,NaN,NaN,NaN
187500.0000,-3221.5122,-3833.9722,-3834.7546,-3861.1296,-3904.4026,-3831.2454,-3792.7781,-2178.1104,-3715.6199,35406.2344,-2469.7783,-3823.4893,-67.0329,-3769.2192,5517.9526,-3790.3862,15329.7422,4064.2400,-3725.6333,8187.5332,16848.4766,5.239075,NaN,NaN,NaN
187500.0000,-2906.8667,-3002.5320,-3003.1133,-3030.1365,-3073.6331,-3000.7439,-2960.5107,-2827.1826,-2912.2310,34520.3477,-2924.9492,-2994.0383,-2917.7742,-2934.6052,4357.6958,-2958.3650,14221.5654,3294.5576,-3041.6699,7295.5645,16043.0537,5.243073,NaN,NaN,NaN
187500.0000,-3274.2847,-3542.2373,-3542.9526,-3569.3052,-3612.5334,-3539.6667,-3500.5066,-3167.0632,-3450.4609,35018.4336,-3070.9954,-3532.6260,-2558.2017,-3476.6125,4952.7217,-3498.4727,14834.5391,3870.6738,-3559.4482,7763.4312,16289.9951,5.247070,NaN,NaN,NaN
187500.0000,-1632.7278,-4666.0605,-4665.7476,-4692.1226,-4735.5073,-4662.5737,-4625.6040,-2297.2898,-4549.0044,36087.7383,1289.1592,-4655.6226,2935.3428,-4603.3638,6336.0713,-4622.9438,16173.1406,4448.3994,-3640.5850,8839.6455,17148.3027,5.251068,NaN,NaN,NaN
187500.0000,-726.4764,-4862.2642,-4857.9951,-4888.6167,-4932.0688,-4859.1797,-4822.5449,-1436.2113,-4688.3452,36251.3555,3167.6667,-4855.5142,4953.5488,-4800.4614,6625.1240,-4819.4829,16414.4492,4316.5464,-3171.3101,9071.1650,17428.2813,5.255066,NaN,NaN,NaN
187500.0000,-3160.3577,-3874.2053,-3874.4290,-3901.2957,-3944.7251,-3871.6797,-3833.1453,-2552.7031,-3766.2913,35209.9414,-2419.6658,-3863.9460,-662.9304,-3809.8101,5360.4844,-3830.6641,15179.9189,3918.5513,-3755.4058,8114.2866,16710.7891,5.259064,NaN,NaN,NaN
187500.0000,-2952.3301,-3048.3083,-3048.9343,-3075.7341,-3119.3870,-3046.4980,-3006.3318,-2901.6809,-2958.4321,34319.1797,-2970.5691,-3039.8372,-3004.1638,-2981.4768,4195.7129,-3004.1414,14069.6631,3283.4041,-3087.3123,7221.2451,15904.9863,5.263062,NaN,NaN,NaN
187500.0000,-3301.0396,-3601.5588,-3602.4753,-3628.8950,-3672.3245,-3599.2566,-3560.2080,-3313.1096,-3510.5425,34827.9961,-3126.1597,-3592.2605,-2913.4158,-3536.5823,4800.5063,-3558.2188,14680.0215,3706.7908,-3611.2817,7687.6362,16150.6104,5.267059,NaN,NaN,NaN
187500.0000,-1373.6711,-4701.2646,-4702.1812,-4727.6396,-4771.0688,-4698.0234,-4661.0762,-2771.7727,-4599.4746,35887.6484,1301.4526,-4689.9321,2143.9568,-4638.7021,6174.3115,-4658.4609,16018.8467,4238.9858,-3413.6702,8763.8730,17007.6875,5.271057,NaN,NaN,NaN
187500.0000,-483.1553,-4908.4204,-4909.0913,-4934.1699,-4977.6440,-4904.6880,-4868.1650,-2086.6917,-4803.1440,36051.3281,3192.4324,-4899.9717,4373.2080,-4846.2827,6466.1357,-4865.3262,16265.1631,4036.1885,-2845.8464,8999.9072,17290.5938,5.275055,NaN,NaN,NaN
187500.0000,-3220.4617,-3937.5725,-3938.3550,-3964.1040,-4007.3101,-3934.5999,-3896.0654,-2995.9607,-3840.2754,35023.4609,-2517.8569,-3926.4639,-1452.5057,-3873.4453,5218.5957,-3894.0090,15034.4307,3445.9236,-3765.5088,8046.8291,16576.1426,5.279053,NaN,NaN,NaN
187500.0000,-2990.5962,-3086.3064,-3086.7759,-3113.5754,-3157.1838,-3084.4512,-3044.1287,-2953.4478,-2996.6760,34119.3125,-3009.0811,-3077.9468,-3065.6980,-3019.9888,4039.5635,-3042.1841,13920.3086,3194.0195,-3125.2654,7150.8813,15767.9033,5.283051,NaN,NaN,NaN
187500.0000,-3310.0920,-3640.7415,-3641.4568,-3667.6306,-3710.9707,-3638.0144,-3598.8989,-3463.4473,-3550.6191,34619.2305,-3151.7747,-3632.0688,-3232.4868,-3575.7202,4634.7236,-3596.9990,14524.3418,3496.1257,-3624.8047,7612.1992,16009.0117,5.287048,NaN,NaN,NaN
187500.0000,-1110.1664,-4756.3838,-4743.1294,-4783.6309,-4826.9932,-4753.8135,-4716.9780,-3337.8083,-4656.8740,35697.3008,1357.6226,-4745.3198,1163.2518,-4695.0957,6029.1816,-4714.4746,15869.8271,3759.2952,-3108.2112,8694.6943,16871.4082,5.291046,NaN,NaN,NaN
187500.0000,-19.0213,-4941.9258,-4905.4478,-4970.7373,-5014.2783,-4941.1436,-4904.6206,-2559.8110,-4839.5327,35858.5898,3378.4885,-4934.2144,3797.0249,-4882.9395,6320.0225,-4901.9834,16124.8604,3908.0012,-2354.7786,8937.7021,17159.9023,5.295044,NaN,NaN,NaN
187500.0000,-19.0213,-4941.9258,-4905.4478,-4970.7373,-5014.2783,-4941.1436,-4904.6206,-2559.8110,-4839.5327,35858.5898,3378.4885,-4934.2144,3797.0249,-4882.9395,6320.0225,-4901.9834,16124.8604,3908.0012,-2354.7786,8937.7021,17159.9023,5.299042,NaN,NaN,NaN
187500.0000,-3099.7175,-3984.4441,-3982.0972,-4011.1992,-4054.6733,-3981.6501,-3943.2053,-3256.2468,-3888.5330,34829.6719,-2433.5908,-3973.0000,-1988.5452,-3920.8311,5073.4883,-3941.1489,14896.7217,3245.3167,-3716.6033,7986.3228,16447.2617,5.303040,NaN,NaN,NaN
187500.0000,-3099.7175,-3984.4441,-3982.0972,-4011.1992,-4054.6733,-3981.6501,-3943.2053,-3256.2468,-3888.5330,34829.6719,-2433.5908,-3973.0000,-1988.5452,-3920.8311,5073.4883,-3941.1489,14896.7217,3245.3167,-3716.6033,7986.3228,16447.2617,5.307037,NaN,NaN,NaN
187500.0000,-3049.2249,-3145.4268,-3146.0303,-3172.6511,-3216.3264,-3143.4150,-3103.3162,-3026.6719,-3056.0645,33934.0586,-3068.1121,-3137.1567,-3138.7883,-3079.7351,3902.7932,-3101.4609,13776.1846,2756.7747,-3184.2742,7084.9214,15635.4023,5.311035,NaN,NaN,NaN
187500.0000,-3049.2249,-3145.4268,-3146.0303,-3172.6511,-3216.3264,-3143.4150,-3103.3162,-3026.6719,-3056.0645,33934.0586,-3068.1121,-3137.1567,-3138.7883,-3079.7351,3902.7932,-3101.4609,13776.1846,2756.7747,-3184.2742,7084.9214,15635.4023,5.315033,NaN,NaN,NaN
187500.0000,-3290.6685,-3671.3633,-3672.0786,-3698.4536,-3741.8159,-3668.8599,-3629.7891,-3537.1411,-3582.0234,34421.5273,-3170.7290,-3663.0483,-3433.6526,-3606.8784,4482.7095,-3627.9116,14374.3613,3292.9260,-3635.6899,7540.6514,15872.0850,5.319031,NaN,NaN,NaN
187500.0000,-3290.6685,-3671.3633,-3672.0786,-3698.4536,-3741.8159,-3668.8599,-3629.7891,-3537.1411,-3582.0234,34421.5273,-3170.7290,-3663.0483,-3433.6526,-3606.8784,4482.7095,-3627.9116,14374.3613,3292.9260,-3635.6899,7540.6514,15872.0850,5.323029,NaN,NaN,NaN
187500.0000,-937.4098,-4796.9526,-4780.6357,-4823.4839,-4866.8018,-4793.7783,-4756.9429,-3915.1985,-4699.9907,35495.8438,1387.3950,-4783.6084,22.0835,-4735.0830,5873.7925,-4754.4619,15718.7520,3441.6096,-2900.9434,8620.7324,16732.2695,5.327026,NaN,NaN,NaN
187500.0000,-937.4098,-4796.9526,-4780.6357,-4823.4839,-4866.8018,-4793.7783,-4756.9429,-3915.1985,-4699.9907,35495.8438,1387.3950,-4783.6084,22.0835,-4735.0830,5873.7925,-4754.4619,15718.7520,3441.6096,-2900.9434,8620.7324,16732.2695,5.331024,NaN,NaN,NaN
187500.0000,154.8529,-5010.0762,-4927.4419,-5037.7031,-5081.0879,-5008.1094,-4971.7207,-3365.1221,-4907.1465,35673.5156,3420.6663,-4997.1567,2625.2124,-4950.0396,6183.1406,-4969.0386,15977.4961,3292.2554,-2129.6072,8866.0430,17022.6641,5.335022,NaN,NaN,NaN
187500.0000,154.8529,-5010.0762,-4927.4419,-5037.7031,-5081.0879,-5008.1094,-4971.7207,-3365.1221,-4907.1465,35673.5156,3420.6663,-4997.1567,2625.2124,-4950.0396,6183.1406,-4969.0386,15977.4961,3292.2554,-2129.6072,8866.0430,17022.6641,5.339020,NaN,NaN,NaN
187500.0000,-3022.4475,-4039.1611,-4028.2983,-4066.1621,-4109.5918,-4036.4343,-3998.2129,-3549.3228,-3944.5686,34645.1563,-2420.5151,-4028.5664,-2576.2844,-3975.8611,4936.8521,-3996.1565,14758.3643,2891.3770,-3691.8152,7922.3965,16317.5557,5.343018,NaN,NaN,NaN
187500.0000,-3108.2781,-3204.8823,-3205.5083,-3232.2185,-3275.9387,-3202.8708,-3162.9729,-3092.9673,-3115.7661,33748.0703,-3127.6572,-3196.8804,-3203.1614,-3139.7495,3763.4971,-3161.1177,13638.2744,2365.1497,-3243.7073,7021.3086,15507.4385,5.347015,NaN,NaN,NaN
187500.0000,-3108.2781,-3204.8823,-3205.5083,-3232.2185,-3275.9387,-3202.8708,-3162.9729,-3092.9673,-3115.7661,33748.0703,-3127.6572,-3196.8804,-3203.1614,-3139.7495,3763.4971,-3161.1177,13638.2744,2365.1497,-3243.7073,7021.3086,15507.4385,5.351013,NaN,NaN,NaN
187500.0000,-3307.7004,-3743.2688,-3744.0735,-3770.6943,-3814.2356,-3741.0337,-3702.2759,-3630.5713,-3654.3760,34244.4141,-3256.4480,-3735.6692,-3631.9795,-3679.4546,4350.9009,-3700.1299,14230.8857,2625.8606,-3673.2632,7472.6572,15741.0811,5.355011,NaN,NaN,NaN
187500.0000,-3307.7004,-3743.2688,-3744.0735,-3770.6943,-3814.2356,-3741.0337,-3702.2759,-3630.5713,-3654.3760,34244.4141,-3256.4480,-3735.6692,-3631.9795,-3679.4546,4350.9009,-3700.1299,14230.8857,2625.8606,-3673.2632,7472.6572,15741.0811,5.359009,NaN,NaN,NaN
187500.0000,-668.4512,-4849.6802,-4794.9185,-4877.4185,-4920.8706,-4847.6685,-4811.0342,-4374.6162,-4756.8760,35312.6719,1317.8364,-4837.7441,-1291.7296,-4789.3975,5734.9434,-4808.3071,15578.1367,3052.4211,-2375.9902,8555.1074,16602.4063,5.363007,NaN,NaN,NaN
187500.0000,401.1914,-5077.4893,-4881.2856,-5107.3960,-5150.7583,-5077.7129,-5041.4136,-4114.4194,-4981.9580,35495.5977,3397.1521,-5064.6147,916.6003,-5019.8662,6051.6230,-5038.9546,15847.2295,2802.9534,-1371.2347,8808.2637,16898.3652,5.367004,NaN,NaN,NaN
187500.0000,401.1914,-5077.4893,-4881.2856,-5107.3960,-5150.7583,-5077.7129,-5041.4136,-4114.4194,-4981.9580,35495.5977,3397.1521,-5064.6147,916.6003,-5019.8662,6051.6230,-5038.9546,15847.2295,2802.9534,-1371.2347,8808.2637,16898.3652,5.371002,NaN,NaN,NaN
187500.0000,-3111.2063,-4131.0718,-4110.8882,-4158.5645,-4201.9937,-4128.8589,-4090.8608,-3891.5728,-4040.0554,34482.0352,-2568.5730,-4121.6841,-3236.3313,-4068.1292,4822.6348,-4088.8716,14631.9434,2132.9822,-3654.0408,7867.7690,16195.6484,5.375977,NaN,NaN,NaN
187500.0000,-3172.4277,-3268.8530,-3269.4790,-3296.1445,-3339.9541,-3266.8638,-3227.0776,-3158.4578,-3179.8484,33570.5977,-3192.3208,-3260.9629,-3269.0320,-3204.2566,3633.2090,-3225.2224,13505.8174,1879.8040,-3307.8123,6961.7412,15381.1064,5.379974,NaN,NaN,NaN
187500.0000,-3172.4277,-3268.8530,-3269.4790,-3296.1445,-3339.9541,-3266.8638,-3227.0776,-3158.4578,-3179.8484,33570.5977,-3192.3208,-3260.9629,-3269.0320,-3204.2566,3633.2090,-3225.2224,13505.8174,1879.8040,-3307.8123,6961.7412,15381.1064,5.383972,NaN,NaN,NaN
187500.0000,-3348.0901,-3806.7253,-3807.5525,-3833.7935,-3877.2451,-3804.0657,-3765.2407,-3695.7937,-3717.4973,34057.1523,-3308.8850,-3799.2600,-3762.2456,-3742.9336,4209.4590,-3763.7207,14091.2549,2046.6598,-3635.1758,7406.6973,15607.9316,5.387970,NaN,NaN,NaN
187500.0000,-372.2012,-4931.5322,-4756.5850,-4959.4272,-5002.9014,-4929.6099,-4892.9980,-4722.6553,-4842.0356,35139.6445,1352.0570,-4920.6021,-2520.6956,-4871.4956,5610.3101,-4890.8296,15441.5010,2257.1909,-1527.4287,8492.0752,16470.6191,5.391968,NaN,NaN,NaN
187500.0000,-372.2012,-4931.5322,-4756.5850,-4959.4272,-5002.9014,-4929.6099,-4892.9980,-4722.6553,-4842.0356,35139.6445,1352.0570,-4920.6021,-2520.6956,-4871.4956,5610.3101,-4890.8296,15441.5010,2257.1909,-1527.4287,8492.0752,16470.6191,5.395966,NaN,NaN,NaN
187500.0000,984.9966,-5137.6826,-4690.8936,-5168.3042,-5211.7339,-5138.3306,-5102.3442,-4738.1675,-5046.1519,35318.0781,3562.7786,-5125.0762,-701.5542,-5080.9761,5924.3965,-5099.9302,15716.9863,2342.5298,-80.3992,8751.6240,16771.3848,5.399963,NaN,NaN,NaN
187500.0000,-2907.6265,-4202.4409,-4166.6777,-4229.6650,-4273.0723,-4199.8926,-4162.0957,-4055.5674,-4112.7207,34306.1055,-2509.3408,-4193.7012,-3616.2886,-4138.3359,4598.8491,-4160.0171,14509.2988,1620.9261,-3266.3721,7818.6846,16075.5078,5.403961,NaN,NaN,NaN
187500.0000,-3258.8171,-3357.8577,-3358.5059,-3385.1716,-3428.8245,-3355.6897,-3316.1494,-3247.5071,-3268.8977,33404.9922,-3280.8560,-3349.9900,-3358.0813,-3283.4487,2511.6208,-3314.4729,13380.5586,1095.9730,-3394.6934,6911.2261,15260.3174,5.407959,NaN,NaN,NaN
187500.0000,-10.6618,-5004.5552,-4826.5459,-5032.8525,-5076.4834,-5003.0132,-4966.6021,-4892.2827,-4917.7412,34962.9531,1325.4137,-4995.7710,-3642.7083,-4942.2163,5355.2988,-4964.2998,15314.4092,1635.8571,-302.3744,8440.0635,16348.1328,5.411957,NaN,NaN,NaN
187500.0000,-2687.9314,-4275.6201,-4216.1870,-4302.9565,-4346.3857,-4273.0723,-4235.3423,-4162.9229,-4187.1299,34143.6055,-2479.5237,-4268.0205,-3978.5432,-4207.9839,3865.9575,-4233.3086,14395.8867,1126.7738,-2647.1169,7776.4624,15961.5811,5.415955,NaN,NaN,NaN
187500.0000,-3253.7209,-3966.8757,-3967.2556,-3993.5190,-4036.9932,-3963.7241,-3925.5027,-3855.9888,-3877.6475,33719.4844,-3481.2170,-3959.4102,-3966.5405,-3888.7788,554.6362,-3923.8933,13835.3945,583.7382,-3164.9399,7298.5371,15361.4365,5.419952,NaN,NaN,NaN
187500.0000,490.6878,-5078.4727,-4724.8682,-5107.0830,-5150.6016,-5077.3999,-5041.1899,-4970.3125,-4992.5303,34793.9102,1249.1942,-5071.9907,-4449.3604,-5006.6343,3964.2383,-5038.9771,15189.0381,963.0025,1363.3223,8384.4521,16222.9854,5.423950,NaN,NaN,NaN
187500.0000,-2608.5378,-4385.9707,-4307.6055,-4413.3965,-4456.8481,-4383.4897,-4346.1177,-4275.8662,-4297.7485,33999.8203,-2646.6477,-4379.0645,-4246.0269,-4311.1821,1954.7717,-4344.1284,14287.3242,167.7722,-1909.6212,7734.8208,15849.4648,5.427948,NaN,NaN,NaN
187500.0000,-3408.1492,-3521.8748,-3522.5007,-3548.8757,-3592.6182,-3519.3267,-3480.2112,-3411.2783,-3432.7361,33084.7383,-3445.3201,-3514.0518,-3522.0090,-3447.5105,-2191.8792,-3478.5796,13154.0010,-171.3485,-3500.5288,6823.5181,15033.5820,5.431946,NaN,NaN,NaN
187500.0000,717.8039,-5181.5811,-4681.0137,-5210.9067,-5254.4702,-5181.0669,-5145.0361,-5074.3374,-5096.5552,34649.3359,1226.1720,-5177.7593,-5003.0132,-5106.2109,1314.5955,-5143.0020,15080.0957,64.3954,2635.4495,8340.7100,16110.1084,5.435944,NaN,NaN,NaN
187500.0000,2452.0981,-5404.9644,-4206.4194,-5438.4253,-5482.0332,-5408.4292,-5372.8896,-5301.9902,-5324.4536,34859.3789,3814.1909,-5402.9082,-4865.3711,-5335.3838,2988.1375,-5371.1689,15399.5244,480.0260,4797.7793,8623.1465,16429.4922,5.439941,NaN,NaN,NaN
187500.0000,-2371.8999,-4476.4282,-4357.3384,-4503.9658,-4547.4624,-4474.2158,-4436.9775,-4366.7485,-4388.8545,33860.8359,-2568.3494,-4470.5947,-4426.1592,-4400.9243,-149.1755,-4435.0552,14211.5518,-67.5470,-745.2518,7700.4214,15743.3164,5.443939,NaN,NaN,NaN
187500.0000,-3503.3899,-3623.0835,-3623.8660,-3649.9727,-3693.8269,-3620.5801,-3581.5093,-3512.5989,-3534.1682,32951.1211,-3546.3052,-3615.5510,-3623.5977,-3555.1790,-3195.5618,-3580.1011,13070.8301,-654.2579,-3514.5659,6782.4355,14921.8672,5.447937,NaN,NaN,NaN
187500.0000,1058.0198,-5261.1533,-4625.0674,-5291.0601,-5334.7129,-5261.2651,-5225.2563,-5154.6250,-5176.9097,34503.1563,1235.1797,-5259.6333,-5262.9639,-5186.7666,-1030.2142,-5223.4683,14996.1426,-211.4251,3993.3848,8300.0742,15998.2158,5.451935,NaN,NaN,NaN
187500.0000,-2135.3516,-4549.4517,-4398.4653,-4577.0112,-4620.6421,-4547.2612,-4510.0454,-4439.9502,-4461.9443,33710.6992,-2564.3933,-4544.0200,-4549.0269,-4475.9146,-2062.8201,-4508.3242,14113.0254,-638.1199,488.9891,7664.4800,15634.4414,5.455933,NaN,NaN,NaN
187500.0000,-3171.3101,-4214.0190,-4207.5591,-4240.8408,-4284.6504,-4210.9790,-4173.2046,-4103.4673,-4125.3271,33271.0156,-3718.1230,-4207.3804,-4215.1143,-4148.0591,-4047.2749,-4171.3271,13530.8291,-1192.9126,-1087.4570,7168.1816,15022.0029,5.459930,NaN,NaN,NaN
187500.0000,1674.4585,-5322.7773,-4401.7290,-5353.6226,-5397.3428,-5323.7607,-5287.9087,-5217.3662,-5239.6958,34355.0313,1232.8998,-5322.5762,-5329.5498,-5252.5259,-3178.7310,-5286.2100,14896.5879,-707.1645,4973.3076,8262.9707,15889.9668,5.463928,NaN,NaN,NaN
187500.0000,3435.0383,-5575.6426,-3681.8462,-5611.2935,-5655.0137,-5581.1855,-5545.7134,-5475.2832,-5497.7241,34578.4609,3897.8760,-5580.6938,-5587.5112,-5506.7319,-2004.3256,-5544.5513,15215.9492,-819.9737,6163.8286,8556.8955,16218.5820,5.467926,NaN,NaN,NaN
187500.0000,-3615.7297,-3767.2747,-3768.0347,-3794.2310,-3838.1743,-3764.7937,-3726.0134,-3656.8123,-3678.3372,32660.0332,-3691.0999,-3759.8984,-3767.9229,-3702.1641,-3719.3301,-3724.3594,12883.1875,-1760.3787,-2983.0862,6718.1743,14715.5605,5.471924,NaN,NaN,NaN
187500.0000,-3139.5930,-4278.5708,-4267.4844,-4305.2588,-4349.0010,-4275.6875,-4237.8237,-4168.0190,-4189.8569,33126.2461,-3764.2349,-4271.8877,-4279.7554,-4214.4658,-4251.4136,-4236.0576,13436.0801,-1695.7821,7.2196,7134.4307,14919.0518,5.475922,NaN,NaN,NaN
187500.0000,2074.0854,-5405.2998,-4250.7207,-5436.7485,-5480.2676,-5406.7080,-5370.8110,-5300.5146,-5322.8218,34225.2344,1290.6121,-5405.6797,-5412.9219,-5342.7598,-4825.5181,-5369.4028,14803.7607,-1435.0490,5574.2119,8230.3818,15787.7520,5.479919,NaN,NaN,NaN
187500.0000,-1568.3101,-4712.7759,-4412.0332,-4741.2744,-4784.9941,-4711.5015,-4674.4424,-4604.1909,-4626.1851,33453.2734,-2590.9470,-4708.8643,-4716.3521,-4647.5308,-4419.0513,-4672.9448,13949.6787,-1807.2949,2906.5537,7617.6084,15445.7705,5.483917,NaN,NaN,NaN
187500.0000,-3676.7725,-3846.0422,-3846.7573,-3872.6855,-3916.7407,-3843.2483,-3804.5349,-3735.4233,-3757.0376,32535.6680,-3768.5710,-3838.6660,-3846.6458,-3781.1550,-3820.4941,-3803.1267,12797.5127,-2391.5918,-2282.1130,6690.2344,14619.6270,5.487915,NaN,NaN,NaN
187500.0000,-2975.3970,-4328.3481,-4309.0137,-4354.7681,-4398.6221,-4324.9951,-4287.3550,-4217.8633,-4239.6118,32986.7930,-3812.6487,-4321.6201,-4329.4209,-4264.4219,-4304.0293,-4286.0137,13342.0020,-2067.9163,1264.2369,7099.2046,14817.3730,5.491913,NaN,NaN,NaN
187500.0000,2444.4539,-5456.8877,-4136.9053,-5489.0518,-5532.5483,-5458.7651,-5423.1143,-5352.9297,-5375.1250,34083.0781,1288.0193,-5458.1172,-5465.2471,-5400.1587,-5429.7749,-5421.9741,14710.4873,-1829.3337,6111.5479,8195.2002,15685.6270,5.495911,NaN,NaN,NaN
187500.0000,4439.5928,-5707.7637,-3050.2307,-5745.4038,-5788.8779,-5714.8267,-5679.6006,-5609.5278,-5631.7900,34323.7617,4232.2803,-5714.9834,-5721.9121,-5654.6333,-5636.7520,-5678.8403,15046.9707,-1747.3922,6744.7280,8503.0283,16026.4912,5.499908,NaN,NaN,NaN
187500.0000,-1253.5752,-4759.6699,-4352.3315,-4788.5483,-4832.2905,-4758.8652,-4721.8730,-4651.8228,-4673.7944,33326.8086,-2483.7705,-4756.4736,-4763.9834,-4698.3589,-4727.6396,-4720.5767,13872.0508,-1975.6035,3968.5298,7596.2178,15356.2959,5.503906,NaN,NaN,NaN
187500.0000,-3698.3418,-3888.1753,-3888.6892,-3914.5056,-3958.5833,-3885.0684,-3846.3552,-3777.4670,-3799.1035,32397.5332,-3809.4077,-3880.7991,-3888.7788,-3823.5339,-3863.0295,-3845.1704,12710.8330,-2587.6836,-766.7095,6661.4678,14524.4092,5.507904,NaN,NaN,NaN
187500.0000,-2882.6150,-4378.9746,-4350.2974,-4405.1265,-4448.9805,-4375.2422,-4337.5122,-4268.3335,-4290.1714,32855.2305,-3845.9751,-4372.3809,-4380.1372,-4315.2500,-4354.7681,-4336.6631,13248.7949,-2464.7939,2267.1150,7064.8052,14717.5947,5.511902,NaN,NaN,NaN
187500.0000,2832.0776,-5480.6699,-3879.9050,-5513.4375,-5557.0010,-5483.1958,-5447.4551,-5377.2485,-5399.5332,33941.1211,1358.6061,-5482.5249,-5489.7002,-5424.9248,-5464.4204,-5446.3599,14616.3867,-1919.5454,6378.1147,8159.1909,15583.5234,5.515900,NaN,NaN,NaN
187500.0000,-1128.4949,-4811.4141,-4368.1567,-4840.0913,-4883.9009,-4810.2070,-4773.3267,-4703.6787,-4725.6279,33197.5703,-2581.2463,-4808.1060,-4815.5938,-4750.7959,-4790.3589,-4772.0078,13784.9463,-2357.1255,4606.7393,7564.9253,15258.6191,5.519897,NaN,NaN,NaN
187500.0000,-3700.1970,-3914.8408,-3915.4219,-3941.1489,-3985.2712,-3911.6670,-3873.1326,-3804.2891,-3825.9927,32259.1309,-3836.7214,-3907.4871,-3915.4890,-3850.3560,-3889.9634,-3871.6350,12623.6387,-2673.8274,735.8417,6630.1084,14427.9160,5.523895,NaN,NaN,NaN
187500.0000,-2845.8687,-4408.3003,-4358.5454,-4434.7422,-4478.6187,-4405.1265,-4367.4639,-4297.9946,-4319.8320,32711.9102,-3854.0889,-4402.0640,-4409.7529,-4344.6870,-4384.3394,-4366.2568,13158.8965,-2611.8235,3325.0229,7031.5010,14620.0293,5.527893,NaN,NaN,NaN
187500.0000,2986.5952,-5529.4414,-3621.0049,-5563.5503,-5606.9351,-5533.1069,-5497.4336,-5427.2046,-5449.5786,33815.9766,1458.4066,-5532.6152,-5539.6338,-5474.9033,-5514.5327,-5496.4058,14532.3438,-2264.9021,6595.0830,8131.1621,15491.0098,5.531891,NaN,NaN,NaN
187500.0000,5006.2319,-5773.8130,-2276.6816,-5812.8394,-5856.3135,-5781.9937,-5746.7896,-5676.7168,-5699.1582,34052.8359,4474.3271,-5782.2842,-5789.1240,-5724.7061,-5764.2690,-5746.0073,14879.3096,-1996.3236,7071.9575,8446.4785,15837.7969,5.535889,NaN,NaN,NaN
187500.0000,-881.9775,-4855.2456,-4283.5327,-4884.8169,-4928.6265,-4854.9106,-4818.2314,-4748.2031,-4770.1528,33068.8008,-2423.6665,-4852.8989,-4860.2749,-4795.2759,-4834.9502,-4816.5996,13711.2969,-2538.0852,5115.3755,7544.6523,15172.6543,5.539886,NaN,NaN,NaN
187500.0000,-3729.3660,-3962.4949,-3963.1431,-3989.1604,-4033.1709,-3959.6560,-3921.2559,-3852.1665,-3873.6914,32134.5645,-3881.9839,-3955.5657,-3963.5454,-3898.2783,-3937.8630,-3919.6240,12540.8037,-3020.1453,2014.9650,6601.7661,14335.6484,5.543884,NaN,NaN,NaN
187500.0000,-2615.8469,-4422.8291,-4363.0825,-4450.0757,-4493.8853,-4419.9902,-4382.4839,-4312.7241,-4334.5845,32572.6602,-3843.4270,-4416.9727,-4424.8184,-4359.5737,-4399.2256,-4381.3442,13068.8408,-2650.0005,4158.7207,6996.3193,14522.3301,5.547882,NaN,NaN,NaN
187500.0000,3397.1746,-5554.7881,-3470.9128,-5589.0537,-5632.5054,-5558.4761,-5522.9370,-5452.6855,-5475.1045,33677.8398,1553.5803,-5558.0742,-5565.2266,-5500.4512,-5540.0361,-5521.9761,14446.1104,-2387.7026,6783.3965,8098.7744,15395.2998,5.551880,NaN,NaN,NaN
187500.0000,5336.6128,-5819.2988,-1918.4502,-5858.9282,-5902.3354,-5827.9487,-5792.8120,-5722.7393,-5745.2251,33931.2422,4648.7827,-5828.2842,-5835.3027,-5770.7954,-5810.3804,-5792.1636,14799.0449,-2332.1587,7245.6084,8418.4043,15745.1494,5.555878,NaN,NaN,NaN
187500.0000,-3724.9629,-4001.3198,-4001.2302,-4027.9854,-4072.1301,-3998.5928,-3960.2148,-3890.9692,-3912.7622,32009.5742,-3918.4172,-3994.4353,-4002.3926,-3937.1255,-3976.7776,-3958.9631,12470.4180,-3158.4355,3552.6531,6582.9907,14253.5947,5.559875,NaN,NaN,NaN
187500.0000,-2426.7288,-4470.6392,-4389.2568,-4498.1992,-4542.0757,-4468.3818,-4430.8311,-4361.2051,-4383.1548,32454.5977,-3865.9353,-4465.2300,-4472.8970,-4407.8086,-4447.5723,-4429.7134,12991.4150,-3009.7070,4742.3247,6972.2690,14435.8516,5.563873,NaN,NaN,NaN
187500.0000,3784.5078,-5578.2354,-3086.6416,-5613.1709,-5656.5781,-5582.5493,-5546.9204,-5476.7583,-5499.1548,33550.7266,1656.2865,-5582.1021,-5589.3662,-5524.5015,-5564.1538,-5545.9370,14367.8799,-2459.8765,6977.3203,8073.6509,15307.0996,5.567871,NaN,NaN,NaN
187500.0000,5579.9341,-5856.5591,-1408.7410,-5896.5020,-5939.9536,-5865.3882,-5830.3403,-5760.1782,-5782.7090,33810.0078,4745.0518,-5865.8574,-5872.8311,-5808.2568,-5847.9536,-5829.6255,14731.0957,-2459.3401,7449.8809,8402.1094,15664.4600,5.571869,NaN,NaN,NaN
187500.0000,-82.3438,-4935.7344,-4104.4956,-4965.9761,-5009.6738,-4936.0918,-4899.4126,-4829.3623,-4851.4907,32836.3867,-2264.1646,-4934.0806,-4941.5459,-4876.4131,-4916.1318,-4898.5859,13574.1025,-2885.5876,5969.6367,7509.4258,15008.1904,5.575867,NaN,NaN,NaN
187500.0000,-3680.2817,-4023.5598,-4023.3809,-4049.9570,-4094.0125,-4020.6541,-3982.2090,-3913.0974,-3934.8232,31884.8516,-3937.3713,-4016.5190,-4024.4985,-3959.2314,-3998.9282,-3981.5161,12396.6572,-3204.9941,4556.0454,6561.6001,14168.8369,5.579865,NaN,NaN,NaN
187500.0000,-2214.8567,-4496.5449,-4362.7026,-4523.8813,-4567.7129,-4494.0640,-4456.5352,-4386.7754,-4408.6802,32320.8008,-3857.5085,-4490.8452,-4498.6016,-4433.5356,-4473.2319,-4455.5073,12909.7861,-3165.2305,5345.3301,6944.5527,14345.8857,5.583862,NaN,NaN,NaN
187500.0000,4117.7500,-5622.0444,-2622.7983,-5657.9194,-5701.2593,-5626.9399,-5591.5347,-5521.3276,-5543.7910,33432.4883,1824.2599,-5626.8501,-5633.9136,-5569.2500,-5608.8794,-5590.6626,14289.3135,-2832.4128,7182.5986,8048.9521,15219.3691,5.587860,NaN,NaN,NaN
187500.0000,5935.7515,-5878.0391,-678.5543,-5918.9878,-5962.3052,-5887.5386,-5852.5581,-5782.4854,-5805.0605,33686.6016,5033.5010,-5888.2539,-5895.1382,-5830.7876,-5870.3726,-5852.1113,14657.2227,-2510.4360,7662.3564,8380.7637,15579.1426,5.591858,NaN,NaN,NaN
187500.0000,484.1835,-4966.2671,-3818.6614,-4997.8721,-5041.5923,-4967.6079,-4930.9956,-4861.0796,-4883.2300,32712.5137,-2016.3955,-4965.9761,-4973.3970,-4908.4878,-4948.1621,-4930.3252,13504.9463,-2990.3057,6189.7344,7491.6563,14926.3379,5.595856,NaN,NaN,NaN
187500.0000,-3636.9639,-4072.3313,-4068.7996,-4099.0415,-4143.4097,-4069.4478,-4031.1145,-3961.9583,-3983.7959,31771.3945,-3982.4326,-4065.6257,-4073.5383,-4008.3159,-4048.0349,-4030.6228,12324.9082,-3566.4666,4776.8135,6542.1987,14086.6719,5.599854,NaN,NaN,NaN
187500.0000,-1811.9664,-4518.5391,-4346.9448,-4546.0317,-4590.1094,-4516.5273,-4479.0884,-4409.0381,-4431.0322,32195.1387,-3838.7556,-4513.3086,-4521.1094,-4455.7529,-4495.5166,-4477.9482,12832.1582,-3311.1204,5561.5386,6920.5020,14260.0547,5.603851,NaN,NaN,NaN
187500.0000,-1811.9664,-4518.5391,-4346.9448,-4546.0317,-4590.1094,-4516.5273,-4479.0884,-4409.0381,-4431.0322,32195.1387,-3838.7556,-4513.3086,-4521.1094,-4455.7529,-4495.5166,-4477.9482,12832.1582,-3311.1204,5561.5386,6920.5020,14260.0547,5.607849,NaN,NaN,NaN
187500.0000,4562.6392,-5649.6938,-2288.1257,-5686.2163,-5729.5566,-5655.1924,-5619.7871,-5549.6699,-5572.0215,33303.7422,1958.9515,-5655.0806,-5662.2109,-5597.4800,-5637.2661,-5619.0493,14211.6855,-3039.9712,7401.5117,8024.2983,15132.5996,5.611847,NaN,NaN,NaN
187500.0000,6175.1831,-5932.0186,-128.4555,-5973.3022,-6016.5752,-5941.8760,-5906.8506,-5836.8228,-5859.3306,33577.3047,5232.2974,-5942.5015,-5949.4756,-5885.0801,-5924.7319,-5906.4258,14588.2900,-2966.5010,7894.5020,8363.0615,15497.9170,5.615845,NaN,NaN,NaN
187500.0000,1014.3221,-5002.9238,-3545.0088,-5035.0879,-5078.7407,-5004.9355,-4968.3008,-4898.5859,-4920.7588,32598.7441,-1832.5747,-5003.3037,-5010.7915,-4945.8374,-4985.5117,-4967.5410,13441.1768,-3200.8145,6430.2612,7478.1782,14848.9336,5.619843,NaN,NaN,NaN
187500.0000,-3544.2266,-4116.5205,-4108.2729,-4142.5156,-4186.6382,-4113.7041,-4075.3711,-4006.3042,-4028.1418,31654.7852,-4022.5762,-4109.7256,-4117.8169,-4052.4158,-4092.1348,-4074.9688,12260.9600,-3761.2620,5015.6641,6529.0562,14011.0342,5.623840,NaN,NaN,NaN
187500.0000,-1411.2667,-4568.4951,-4340.9771,-4595.8315,-4639.8643,-4566.8188,-4529.4243,-4458.8599,-4480.9434,32083.8496,-3845.0811,-4563.1533,-4571.0879,-4505.3740,-4545.1377,-4528.4634,12760.8340,-3725.7673,5787.3584,6900.7881,14179.2529,5.627838,NaN,NaN,NaN
187500.0000,4953.7944,-5676.2251,-1784.1832,-5713.5527,-5756.8481,-5682.5283,-5647.1011,-5576.9165,-5599.3574,33183.4883,2096.7725,-5682.3945,-5689.5024,-5624.7046,-5664.4233,-5646.3633,14140.6074,-3247.5071,7625.3643,8003.9580,15050.2783,5.631836,NaN,NaN,NaN
187500.0000,6343.7827,-5976.2080,437.1778,-6017.8940,-6061.0776,-5986.4004,-5951.3975,-5881.3472,-5903.8555,33462.4844,5292.5352,-5987.1382,-5994.0000,-5929.6494,-5969.2788,-5950.9731,14527.0469,-3279.6936,8127.5410,8351.1699,15422.8818,5.635834,NaN,NaN,NaN
187500.0000,1489.6990,-5062.3345,-3376.9238,-5095.5049,-5138.9341,-5065.0840,-5028.5835,-4958.7788,-4980.9966,32500.0605,-1791.6934,-5063.5415,-5070.9624,-5006.0977,-5045.7051,-5027.9800,13386.0791,-3640.6968,6666.2510,7472.2324,14779.8896,5.639832,NaN,NaN,NaN
187500.0000,-3410.5186,-4143.0967,-4121.5273,-4169.6284,-4213.4380,-4140.3701,-4102.0815,-4033.1487,-4054.9863,31540.2324,-4039.1611,-4136.6597,-4144.5049,-4079.4390,-4119.0015,-4101.9248,12198.1514,-3901.5862,5237.8184,6516.8296,13937.0049,5.643829,NaN,NaN,NaN
187500.0000,-1219.2206,-4604.3477,-4323.8999,-4632.1528,-4675.8062,-4602.6709,-4565.2764,-4495.0698,-4517.0864,31963.5742,-3870.7856,-4599.4526,-4607.2754,-4541.8296,-4581.5039,-4564.1367,12693.6670,-4099.9355,6000.0571,6885.4546,14102.9668,5.647827,NaN,NaN,NaN
187500.0000,-1219.2206,-4604.3477,-4323.8999,-4632.1528,-4675.8062,-4602.6709,-4565.2764,-4495.0698,-4517.0864,31963.5742,-3870.7856,-4599.4526,-4607.2754,-4541.8296,-4581.5039,-4564.1367,12693.6670,-4099.9355,6000.0571,6885.4546,14102.9668,5.651825,NaN,NaN,NaN
187500.0000,5065.3296,-5732.4175,-1390.0996,-5769.7002,-5812.8394,-5738.4526,-5703.0923,-5632.9077,-5655.4829,33077.4063,2182.9160,-5738.4302,-5745.5825,-5680.8521,-5720.6382,-5702.3545,14075.3398,-3806.9265,7836.3872,7990.0557,14975.1768,5.655823,NaN,NaN,NaN
187500.0000,6511.6440,-6007.6348,1114.2344,-6048.9404,-6092.1021,-6017.2905,-5982.4663,-5912.2598,-5934.9468,33350.7227,5520.5679,-6018.0728,-6025.0464,-5960.6289,-6000.3701,-5981.9302,14466.7412,-3475.1821,8341.9834,8341.0674,15350.7529,5.659821,NaN,NaN,NaN
187500.0000,1911.8340,-5098.3882,-3060.5796,-5131.9380,-5175.4570,-5101.7632,-5065.3296,-4995.2568,-5017.4302,32384.8594,-1586.3479,-5100.1538,-5107.7085,-5042.5313,-5082.3169,-5064.5474,13327.8975,-3790.4980,6879.8892,7462.7554,14708.4756,5.663818,NaN,NaN,NaN
187500.0000,-3345.2065,-4196.4058,-4167.7510,-4221.5068,-4265.0703,-4193.9473,-4155.7705,-4086.4353,-4108.2280,31435.7383,-4088.3799,-4190.3706,-4198.4844,-4132.8149,-4172.5342,-4155.3901,12137.9805,-4087.0164,5445.4658,6506.1011,13865.9043,5.667816,NaN,NaN,NaN
187500.0000,-874.4449,-4627.7275,-4281.6108,-4655.0410,-4698.5825,-4625.6040,-4588.4331,-4518.4048,-4540.3096,31842.3613,-3858.5591,-4623.1006,-4630.9014,-4565.6343,-4605.3311,-4587.5166,12623.3262,-4240.8188,6192.8633,6866.0532,14024.6914,5.671814,NaN,NaN,NaN
187500.0000,5384.0654,-5759.6421,-1062.4231,-5797.7964,-5840.8906,-5766.3477,-5731.0986,-5660.9814,-5683.3555,32954.3398,2276.0110,-5766.5933,-5773.7236,-5708.8813,-5748.6895,-5730.5176,14006.6758,-4093.0291,8027.7852,7971.9951,14897.9736,5.675812,NaN,NaN,NaN
187500.0000,6641.9546,-6058.4849,1589.7230,-6099.9028,-6142.9072,-6068.0737,-6033.2720,-5963.1992,-5985.7300,33248.2188,5697.5488,-6069.1465,-6075.9863,-6011.5015,-6051.2876,-6032.8921,14407.0176,-3956.5940,8542.4346,8330.0029,15279.1826,5.679810,NaN,NaN,NaN
187500.0000,2342.1946,-5135.0225,-2757.2441,-5169.1538,-5212.6279,-5138.5986,-5102.2100,-5032.2271,-5054.4224,32281.9082,-1407.3329,-5137.1460,-5144.5444,-5079.7021,-5119.5103,-5101.6514,13276.7793,-4036.9260,7089.1016,7459.2461,14643.9238,5.683807,NaN,NaN,NaN
187500.0000,-3148.5559,-4233.7334,-4193.0083,-4259.1025,-4302.6436,-4230.2017,-4192.0024,-4123.6060,-4145.3096,31321.6777,-4121.4155,-4227.1841,-4235.0073,-4170.2988,-4210.1519,-4192.7847,12077.8760,-4164.1523,5640.1943,6494.9697,13795.5859,5.687805,NaN,NaN,NaN
187500.0000,-520.2145,-4668.8545,-4212.6777,-4696.8613,-4740.4023,-4666.6416,-4629.5156,-4559.9121,-4581.7500,31733.0605,-3855.5417,-4664.8311,-4672.6543,-4607.4541,-4647.3076,-4629.2695,12554.6387,-4411.3179,6371.3198,6847.6577,13949.0078,5.691803,NaN,NaN,NaN
187500.0000,5629.0186,-5775.4224,-518.0464,-5814.1802,-5857.2295,-5782.5972,-5747.3262,-5677.3652,-5699.8286,32837.9297,2393.5588,-5782.7759,-5789.9956,-5725.2202,-5765.0957,-5746.8120,13940.4248,-4247.4795,8204.5205,7954.8960,14823.3633,5.695801,NaN,NaN,NaN
187500.0000,6753.9814,-6088.5703,2109.4683,-6129.6079,-6172.5684,-6097.7793,-6062.9551,-5992.9717,-6015.5693,33135.2305,5703.5166,-6098.8296,-6105.7363,-6041.3633,-6081.0825,-6062.6201,14348.9922,-4186.9956,8728.2891,8319.3193,15210.0938,5.699799,NaN,NaN,NaN
187500.0000,2783.3062,-5186.5435,-2559.4758,-5221.4346,-5264.8638,-5190.5664,-5154.3569,-5084.3960,-5106.5688,32186.8242,-1385.0034,-5189.4268,-5196.8477,-5131.8037,-5171.5005,-5153.7759,13225.3027,-4427.4336,7283.1592,7454.2842,14580.4229,5.703796,NaN,NaN,NaN
187500.0000,-2911.0239,-4254.9229,-4192.6509,-4281.1411,-4324.9731,-4251.2124,-4213.0132,-4145.1758,-4166.9688,31213.2930,-4129.6187,-4248.7534,-4256.6660,-4191.5332,-4231.4312,-4214.2871,12021.4609,-4231.3862,5825.4902,6485.6265,13729.1787,5.707794,NaN,NaN,NaN
187500.0000,-304.8554,-4697.1519,-4234.4482,-4724.8457,-4768.2749,-4694.7378,-4657.6338,-4588.3438,-4610.3154,31618.7324,-3886.4319,-4692.9722,-4700.7729,-4635.6177,-4675.4932,-4657.4551,12493.9092,-4653.6553,6548.8599,6835.1187,13880.5889,5.711792,NaN,NaN,NaN
187500.0000,5692.4302,-5822.9868,-247.4115,-5860.9624,-5904.0566,-5829.4019,-5794.2646,-5724.2144,-5746.7676,32735.5137,2453.9980,-5829.8042,-5836.9790,-5772.1592,-5812.0566,-5793.8403,13878.3760,-4815.2808,8379.9590,7941.1943,14753.4023,5.715790,NaN,NaN,NaN
187500.0000,6840.2817,-6117.3369,2656.3484,-6157.8384,-6200.9995,-6126.0767,-6091.4312,-6021.3364,-6044.0010,33028.1875,5884.2529,-6127.2612,-6134.1455,-6069.6606,-6109.5361,-6091.1182,14291.8838,-4465.8335,8909.2266,8309.4619,15142.8594,5.719788,NaN,NaN,NaN
187500.0000,2975.9111,-5223.4238,-2280.3472,-5258.4043,-5301.7666,-5227.7153,-5191.5947,-5121.7231,-5144.0078,32080.1387,-1237.6608,-5226.4634,-5233.9292,-5169.1538,-5208.8726,-5191.0137,13173.3799,-4586.0859,7468.7012,7448.6514,14517.4355,5.723785,NaN,NaN,NaN
187500.0000,-2848.2380,-4302.1968,-4228.9722,-4328.8398,-4372.8950,-4299.0674,-4261.0693,-4192.4497,-4214.2427,31116.6230,-4176.2222,-4294.4854,-4302.0176,-4239.0527,-4278.6377,-4261.3823,11967.0342,-4308.1646,6005.0420,6478.4517,13666.1914,5.727783,NaN,NaN,NaN
187500.0000,58.8745,-4713.1333,-4139.5874,-4741.9448,-4785.6426,-4711.6582,-4674.5098,-4604.9512,-4626.7437,31505.7441,-3863.9683,-4708.9761,-4716.6201,-4652.2026,-4691.9888,-4674.2412,12430.5869,-4669.2344,6715.8496,6820.3442,13810.9863,5.731781,NaN,NaN,NaN
187500.0000,5932.4209,-5849.0713,83.9084,-5887.8291,-5930.9009,-5856.2241,-5820.9751,-5751.0366,-5773.5449,32622.1914,2547.3611,-5856.6265,-5863.8013,-5799.0703,-5838.8345,-5820.6846,13817.8701,-5074.8291,8549.1396,7929.1919,14686.0117,5.735779,NaN,NaN,NaN
187500.0000,6941.1104,-6163.9180,3074.3259,-6204.1514,-6247.0664,-6172.2554,-6137.5205,-6067.4033,-6090.2021,32933.0586,6051.7568,-6173.4175,-6180.3242,-6116.0181,-6155.7598,-6137.3867,14238.6416,-4937.2769,9085.5811,8303.0469,15080.2520,5.739777,NaN,NaN,NaN
187500.0000,3394.9839,-5244.7695,-1898.1324,-5280.3760,-5323.6489,-5249.4858,-5213.3433,-5143.1812,-5165.6670,31979.4883,-1002.0063,-5248.2788,-5255.6548,-5190.7900,-5230.5986,-5212.8511,13125.3018,-4718.6318,7648.4761,7446.7295,14459.2979,5.743774,NaN,NaN,NaN
187500.0000,-2535.0901,-4331.0527,-4232.0566,-4359.2383,-4403.1816,-4329.2871,-4291.5571,-4221.0596,-4243.0986,31008.5957,-4192.8296,-4323.4756,-4330.7173,-4267.8418,-4307.6055,-4290.9536,11914.7754,-4349.5151,6177.5078,6473.3555,13606.7129,5.747772,NaN,NaN,NaN
187500.0000,301.3239,-4755.0205,-4038.5801,-4785.0391,-4828.5576,-4754.4839,-4717.5591,-4647.1289,-4669.2568,31404.9375,-3848.4561,-4751.1763,-4758.8203,-4694.6260,-4734.4570,-4716.5977,12369.8799,-4733.2944,6880.2241,6808.0728,13745.5625,5.751770,NaN,NaN,NaN
187500.0000,6072.0522,-5866.0361,624.4854,-5904.9058,-5947.8213,-5873.1890,-5838.0518,-5767.8452,-5790.4873,32514.0762,2676.9343,-5873.5020,-5880.7661,-5816.0132,-5855.8438,-5837.5376,13758.3701,-5198.3672,8717.7393,7916.5405,14618.8447,5.755768,NaN,NaN,NaN
187500.0000,7025.2202,-6193.1318,3613.2488,-6232.5825,-6275.5874,-6200.7314,-6166.0190,-6095.7900,-6118.5215,32829.3711,6093.1079,-6201.7373,-6208.7334,-6144.2485,-6184.1909,-6165.6836,14188.9990,-5167.1865,9266.4521,8298.5547,15020.0137,5.759766,NaN,NaN,NaN
187500.0000,-2164.0288,-4353.9854,-4222.1104,-4382.7075,-4426.7852,-4353.1587,-4315.6074,-4244.5068,-4266.5454,30907.6563,-4201.5913,-4347.2129,-4354.7681,-4291.4009,-4331.1421,-4314.6016,11865.6016,-4384.8086,6356.7017,6469.1089,13548.6660,5.763763,NaN,NaN,NaN
187500.0000,668.8536,-4779.9429,-4048.9290,-4809.8047,-4853.4351,-4779.6074,-4742.7939,-4672.1626,-4694.2236,31297.1797,-3878.3628,-4775.8745,-4783.3179,-4719.5933,-4759.4688,-4741.8555,12316.0117,-4805.4238,7052.9585,6799.9590,13684.5420,5.767761,NaN,NaN,NaN
187500.0000,6212.1978,-5909.6895,964.0978,-5948.2012,-5991.0942,-5916.4395,-5881.3472,-5811.2075,-5833.8276,32421.3828,2751.4548,-5916.9761,-5924.0840,-5859.2861,-5899.2510,-5880.9897,13706.7148,-5525.5298,8893.0439,7910.4834,14559.5010,5.771759,NaN,NaN,NaN
187500.0000,7113.5093,-6217.2715,4241.3330,-6256.0742,-6299.0342,-6224.0889,-6189.5332,-6119.2817,-6142.0132,32730.7754,6260.2764,-6225.3628,-6232.2471,-6167.7847,-6207.6602,-6189.1978,14142.2607,-5405.2104,9447.9482,8295.7158,14962.7041,5.775757,NaN,NaN,NaN
187500.0000,4006.8184,-5326.5771,-1253.7764,-5362.9878,-5406.2388,-5331.8071,-5295.8882,-5225.7705,-5248.0552,31792.2930,-757.3889,-5331.0249,-5338.4009,-5273.2681,-5313.0542,-5295.3516,13039.4707,-5107.3286,8021.1245,7447.6904,14350.2891,5.779755,NaN,NaN,NaN
187500.0000,-1665.7860,-4399.0913,-4238.1362,-4428.7744,-4472.6958,-4398.8901,-4361.2725,-4289.6572,-4311.8750,30818.0703,-4238.6504,-4395.5151,-4403.3159,-4334.9863,-4375.3760,-4361.1382,11821.8145,-4439.1680,6538.8687,6468.9971,13495.4014,5.783752,NaN,NaN,NaN
187500.0000,1244.7462,-4795.5444,-3875.9041,-4825.9204,-4869.3721,-4795.7007,-4758.8203,-4688.1890,-4710.3394,31193.6250,-3833.3018,-4793.4209,-4801.2886,-4734.7476,-4774.8018,-4758.3286,12265.2959,-4838.6606,7224.8213,6794.3267,13626.9639,5.787750,NaN,NaN,NaN
187500.0000,6391.8164,-5933.2256,1390.4126,-5972.0283,-6014.8540,-5940.1323,-5905.0850,-5835.0122,-5857.5874,32315.8164,2890.4827,-5940.6016,-5947.8438,-5883.0234,-5922.9214,-5904.7944,13657.4297,-5836.4204,9065.7773,7906.3706,14503.1074,5.791748,NaN,NaN,NaN
187500.0000,7209.8008,-6265.1265,4691.9438,-6303.2363,-6346.1743,-6271.3853,-6236.7847,-6166.6001,-6189.2871,32644.0508,6393.9619,-6272.6147,-6279.5435,-6215.0366,-6254.9341,-6236.4492,14100.3291,-5893.1938,9628.4385,8297.5488,14911.5410,5.795746,NaN,NaN,NaN
187500.0000,4443.0347,-5349.9121,-820.9572,-5386.2783,-5429.5962,-5355.2769,-5319.2681,-5249.0386,-5271.3457,31699.5332,-568.8519,-5354.4722,-5361.8481,-5296.6929,-5336.5903,-5318.5527,13000.8691,-5244.1216,8205.3926,7452.2280,14301.6064,5.799744,NaN,NaN,NaN
187500.0000,-1033.8352,-4421.7559,-4219.2271,-4451.2378,-4495.3604,-4421.9351,-4384.4287,-4311.0029,-4333.4219,30716.1230,-4248.2617,-4418.2021,-4426.1816,-4357.4502,-4397.8174,-4382.9980,11776.4189,-4466.5044,6713.0781,6467.7227,13442.0928,5.803741,NaN,NaN,NaN
187500.0000,1606.7775,-4830.3013,-3753.9082,-4860.8784,-4904.4644,-4830.7480,-4793.9126,-4722.1187,-4744.3140,31097.4453,-3783.1221,-4828.3789,-4836.2021,-4769.2363,-4809.3799,-4792.6831,12211.8301,-4877.5083,7386.6255,6786.7271,13569.1396,5.807739,NaN,NaN,NaN
187500.0000,6497.0933,-5946.9497,1906.0896,-5985.4395,-6028.3101,-5953.6104,-5918.5630,-5848.5347,-5870.9536,32211.0527,3043.8157,-5954.2139,-5961.3218,-5896.3901,-5936.3774,-5917.9819,13603.7627,-5924.3745,9225.6826,7897.9663,14443.9873,5.811737,NaN,NaN,NaN
187500.0000,7284.2769,-6291.2109,5178.0273,-6328.9185,-6371.8564,-6297.1343,-6262.6455,-6192.3271,-6214.9023,32543.1113,6471.3887,-6298.4307,-6305.2256,-6240.6963,-6280.5718,-6262.2212,14054.3516,-6078.1543,9797.0820,8295.3135,14857.4502,5.815735,NaN,NaN,NaN
187500.0000,4765.7271,-5391.8662,-517.3088,-5428.5010,-5471.7964,-5397.4097,-5361.5576,-5291.2163,-5313.4341,31614.2832,-416.4353,-5396.7168,-5404.1597,-5338.9824,-5378.8130,-5360.8867,12959.3848,-5384.4009,8378.1045,7453.5020,14251.4492,5.819733,NaN,NaN,NaN
187500.0000,-319.9429,-4437.5811,-4187.2417,-4466.3477,-4510.5596,-4437.1343,-4399.6948,-4326.1128,-4348.4424,30619.4297,-4243.9927,-4433.4907,-4441.6489,-4373.2974,-4413.4189,-4398.3540,11729.9268,-4482.5977,6878.0786,6465.0405,13389.7451,5.823730,NaN,NaN,NaN
187500.0000,2154.4399,-4846.3945,-3718.4585,-4877.5083,-4921.1611,-4847.3330,-4810.6318,-4739.0840,-4761.3013,30991.5645,-3832.8101,-4845.0757,-4852.9214,-4785.8882,-4825.9648,-4809.4023,12158.4316,-4893.1318,7540.9863,6777.7417,13511.8076,5.827728,NaN,NaN,NaN
187500.0000,2154.4399,-4846.3945,-3718.4585,-4877.5083,-4921.1611,-4847.3330,-4810.6318,-4739.0840,-4761.3013,30991.5645,-3832.8101,-4845.0757,-4852.9214,-4785.8882,-4825.9648,-4809.4023,12158.4316,-4893.1318,7540.9863,6777.7417,13511.8076,5.831726,NaN,NaN,NaN
187500.0000,6639.9878,-5977.7949,2202.0715,-6014.8540,-6057.8145,-5983.0479,-5948.2461,-5877.8604,-5900.4131,32117.4219,3085.1218,-5983.5840,-5990.8262,-5925.9390,-5965.8813,-5946.4805,13549.8730,-5956.1807,9378.3223,7888.1763,14385.7607,5.835724,NaN,NaN,NaN
187500.0000,7359.6245,-6301.4258,5724.8179,-6334.0820,-6377.0195,-6302.4990,-6268.0547,-6197.4458,-6220.0654,32445.2090,6612.0703,-6303.4824,-6310.5005,-6245.9487,-6285.8242,-6266.8926,14007.1445,-6132.2900,9957.5010,8290.2393,14803.0459,5.839722,NaN,NaN,NaN
187500.0000,5010.6572,-5411.8936,-16.4509,-5448.0361,-5491.2646,-5417.1016,-5381.2715,-5311.1094,-5333.3940,31518.2617,-219.9188,-5416.0732,-5423.5835,-5358.5176,-5398.2813,-5380.4224,12918.0781,-5420.2754,8546.3682,7453.3232,14201.4043,5.843719,NaN,NaN,NaN
187500.0000,5010.6572,-5411.8936,-16.4509,-5448.0361,-5491.2646,-5417.1016,-5381.2715,-5311.1094,-5333.3940,31518.2617,-219.9188,-5416.0732,-5423.5835,-5358.5176,-5398.2813,-5380.4224,12918.0781,-5420.2754,8546.3682,7453.3232,14201.4043,5.847717,NaN,NaN,NaN
187500.0000,282.8837,-4473.4111,-4161.7158,-4500.1211,-4544.6904,-4472.9189,-4435.5249,-4364.5356,-4386.6191,30534.2480,-4265.5396,-4466.5938,-4475.0649,-4409.6416,-4449.0029,-4432.2388,11686.3408,-4517.7119,7042.0288,6463.8560,13340.2139,5.851715,NaN,NaN,NaN
187500.0000,2666.0938,-4852.2061,-3506.3628,-4882.4033,-4926.1904,-4852.7871,-4816.0410,-4745.8115,-4767.8281,30890.1328,-3764.3689,-4849.4790,-4857.4585,-4792.3032,-4832.0894,-4812.9785,12105.3467,-4900.1279,7693.9844,6768.9126,13455.8838,5.855713,NaN,NaN,NaN
187500.0000,6751.6348,-5993.3965,2647.4746,-6031.2383,-6074.1533,-5999.2749,-5964.3618,-5894.2217,-5916.7300,32014.8945,3220.3721,-5999.9233,-6007.1206,-5942.2109,-5982.2432,-5963.1768,13499.7383,-6039.4189,9534.9629,7881.6494,14331.4238,5.859711,NaN,NaN,NaN
187500.0000,7449.0093,-6339.9380,6013.2451,-6373.5771,-6416.6489,-6341.9497,-6307.5278,-6237.0083,-6259.6504,32361.9277,6717.0566,-6343.1343,-6349.9961,-6285.5786,-6325.4541,-6303.0801,13964.7656,-6323.8672,10125.5859,8290.5742,14754.1396,5.863708,NaN,NaN,NaN
187500.0000,5391.9111,-5430.7808,428.5053,-5466.9907,-5510.3530,-5436.0112,-5400.1812,-5330.0415,-5352.3486,31429.1895,-45.8881,-5435.2510,-5442.6719,-5377.7402,-5417.5039,-5398.5942,12880.5947,-5463.7944,8722.0752,7457.4805,14155.8955,5.867706,NaN,NaN,NaN
187500.0000,982.7391,-4492.7900,-4110.5752,-4519.7236,-4564.3823,-4492.5664,-4455.2837,-4384.2500,-4406.2217,30438.3594,-4268.1104,-4487.7158,-4496.1426,-4430.7861,-4470.1924,-4451.0366,11644.7441,-4538.2085,7214.7407,6465.4209,13293.2744,5.871704,NaN,NaN,NaN
187500.0000,3097.7952,-4881.6880,-3320.1057,-4911.4829,-4955.5156,-4882.4702,-4845.7910,-4775.4722,-4797.5557,30801.3281,-3669.6199,-4879.7656,-4887.8569,-4822.6792,-4862.3760,-4829.6309,12056.3066,-4930.1016,7860.8179,6765.8281,13405.1904,5.875702,NaN,NaN,NaN
187500.0000,6874.0327,-5999.0737,3165.1858,-6035.4180,-6078.4224,-6003.6338,-5968.7427,-5898.4019,-5921.0664,31917.1719,3455.5796,-6004.1479,-6011.4121,-5946.5474,-5986.6016,-5959.0645,13451.8604,-6052.4722,9705.3281,7878.3862,14279.8135,5.879700,NaN,NaN,NaN
187500.0000,7534.2588,-6365.3740,6285.0645,-6396.0186,-6438.8667,-6364.4800,-6330.0361,-6259.3374,-6282.0024,32269.1680,6831.1177,-6365.5083,-6372.3481,-6307.9077,-6347.9175,-6327.1528,13927.1035,-6409.8320,10311.3516,8295.4248,14709.3916,5.883698,NaN,NaN,NaN
187500.0000,5728.7070,-5473.2046,824.6899,-5509.3921,-5552.5532,-5478.1665,-5442.2471,-5372.2192,-5394.4814,31352.0527,194.3261,-5477.5854,-5484.9165,-5420.0518,-5459.8828,-5433.8428,12846.6201,-5526.7144,8917.4297,7466.0190,14114.7910,5.887695,NaN,NaN,NaN
187500.0000,1899.8759,-4506.8267,-4031.0698,-4535.2134,-4579.6489,-4507.2065,-4469.8569,-4399.5386,-4421.2866,30349.4883,-4252.4639,-4502.4014,-4510.8726,-4444.7559,-4484.0278,-4464.7607,11607.0371,-4552.3125,7408.9771,6470.5840,13250.2480,5.891693,NaN,NaN,NaN
187500.0000,3687.8364,-4899.1001,-3168.5608,-4929.9453,-4973.7324,-4900.4858,-4863.7617,-4793.6445,-4815.5938,30704.3887,-3729.2766,-4897.2446,-4905.4702,-4839.5103,-4878.9834,-4858.1289,12013.3691,-4946.9102,8049.1982,6765.7163,13358.1396,5.895691,NaN,NaN,NaN
187500.0000,7630.5054,-6382.3618,6592.7139,-6411.9551,-6454.7813,-6380.4839,-6346.0176,-6275.1626,-6297.8721,32181.5273,6965.5635,-6381.4453,-6388.3296,-6323.8447,-6363.8096,-6329.5444,13887.7197,-6422.0137,10515.2217,8299.6943,14665.3809,5.899689,NaN,NaN,NaN
187500.0000,2642.1772,-4548.3789,-3944.4792,-4578.5981,-4622.6089,-4546.0986,-4509.4419,-4440.6431,-4462.5703,30274.0957,-4266.7021,-4545.6069,-4553.7432,-4488.1406,-4527.9937,-4481.1001,11569.9111,-4596.1221,7623.1963,6478.6084,13210.9082,5.903687,NaN,NaN,NaN
187500.0000,4226.8936,-4913.0474,-2854.3848,-4945.7705,-4989.2666,-4914.1650,-4877.6196,-4807.9048,-4830.0776,30613.9102,-3629.9456,-4913.0024,-4920.9375,-4855.4023,-4895.4341,-4850.8647,11968.6211,-4963.3389,8255.8174,6766.7222,13313.0557,5.907684,NaN,NaN,NaN
187500.0000,7112.0791,-6060.6084,3971.3237,-6095.8569,-6138.8843,-6064.0728,-6029.0923,-5958.8408,-5981.4829,31741.0176,3682.8521,-6064.6987,-6071.8735,-6006.9863,-6046.9512,-6023.4375,13366.0518,-6112.8892,10108.0615,7879.6157,14187.0537,5.911682,NaN,NaN,NaN
187500.0000,7743.6050,-6426.6182,6820.5005,-6455.0942,-6498.1885,-6423.6899,-6389.2681,-6318.4131,-6341.1226,32107.8105,7082.4629,-6424.6509,-6431.6470,-6367.1177,-6407.0381,-6349.3257,13852.0010,-6468.2368,10737.8896,8307.6514,14625.3496,5.915680,NaN,NaN,NaN
187500.0000,6201.3569,-5524.6582,2032.5111,-5559.4819,-5602.6655,-5528.0781,-5492.3599,-5422.1753,-5444.4824,31189.0195,641.7409,-5527.5415,-5535.0962,-5470.0527,-5509.9507,-5462.2969,12785.8682,-5576.6704,9364.6211,7489.0859,14040.7617,5.919678,NaN,NaN,NaN
187500.0000,3387.0491,-4579.2017,-3772.9519,-4609.5332,-4653.2085,-4577.8384,-4540.8462,-4470.5273,-4491.9629,30189.0703,-4265.4277,-4576.6089,-4584.7227,-4519.3438,-4559.2417,-4532.2632,11537.4111,-4627.0122,7853.7100,6491.6167,13176.5986,5.923676,NaN,NaN,NaN
187500.0000,4557.1182,-4949.9946,-2617.1880,-4982.8296,-5026.0356,-4951.3584,-4914.7910,-4844.2041,-4866.1758,30526.0898,-3543.3550,-4950.0171,-4957.9746,-4892.6626,-4932.6724,-4890.2485,11910.2607,-5000.2637,8474.8428,6772.6680,13272.8232,5.927673,NaN,NaN,NaN
187500.0000,7845.7974,-6449.6401,6971.5088,-6478.0718,-6520.7412,-6446.4438,-6412.1787,-6341.2119,-6364.0776,32010.0664,7187.7397,-6447.4497,-6454.4683,-6390.0059,-6429.9707,-6406.8145,13799.7881,-6496.7803,10967.4414,8317.7324,14586.9043,5.931671,NaN,NaN,NaN
187500.0000,6408.7144,-5569.3394,2508.7373,-5604.3867,-5647.3247,-5572.7593,-5537.1753,-5466.8120,-5489.1860,31107.2793,880.7034,-5572.2676,-5579.7329,-5514.8232,-5554.7661,-5515.6279,12736.6719,-5622.2236,9601.2588,7503.9497,14006.6533,5.935669,NaN,NaN,NaN
187500.0000,4236.9072,-4588.9473,-3554.0837,-4620.6196,-4664.1831,-4588.1201,-4551.2842,-4481.5024,-4502.9375,30094.1426,-4241.5786,-4587.4048,-4595.5630,-4530.2959,-4570.1714,-4535.6831,11485.7783,-4637.8975,8081.8540,6500.2896,13137.3711,5.939667,NaN,NaN,NaN
187500.0000,5097.7397,-4958.5107,-2260.0071,-4993.0889,-5036.3394,-4960.7236,-4924.3125,-4855.0225,-4876.7930,30429.5742,-3583.2527,-4960.3213,-4968.2339,-4902.8774,-4942.8647,-4909.9854,11867.5020,-5010.4785,8694.1797,6776.1099,13229.6396,5.943665,NaN,NaN,NaN
187500.0000,7331.4165,-6104.5293,4771.3149,-6138.4595,-6181.2183,-6106.5859,-6071.7842,-6001.3540,-6023.9512,31563.2988,3919.2888,-6107.1445,-6114.3867,-6049.5220,-6089.5313,-6026.1196,13264.2627,-6156.6982,10549.9785,7891.8643,14105.2246,5.947662,NaN,NaN,NaN
187500.0000,7952.1694,-6470.6509,7152.3569,-6498.3003,-6540.9917,-6466.6724,-6432.3623,-6361.4404,-6384.2168,31930.1367,7301.9121,-6467.6113,-6474.6519,-6410.1450,-6450.1099,-6409.3848,13770.3057,-6516.9189,11200.4814,8332.5957,14553.3770,5.951660,NaN,NaN,NaN
187500.0000,6553.9336,-5595.5132,3020.6816,-5629.2417,-5672.0903,-5597.4800,-5561.9185,-5491.4658,-5513.8623,31026.4336,1099.5046,-5597.0332,-5604.4985,-5539.5444,-5579.4868,-5548.7979,12713.2471,-5646.8999,9838.6113,7521.6523,13975.8301,5.955658,NaN,NaN,NaN
187500.0000,4833.3188,-4625.6040,-3415.7263,-4657.1201,-4700.7280,-4626.1626,-4589.0811,-4517.3320,-4538.8794,30021.2305,-4239.1421,-4623.6592,-4631.8623,-4566.2153,-4606.1133,-4500.4565,11451.8037,-4674.1294,8311.0039,6513.9238,13104.4697,5.959656,NaN,NaN,NaN
187500.0000,5481.9438,-4968.3682,-1747.1240,-5002.7002,-5045.9287,-4971.4971,-4934.8853,-4864.0522,-4885.9795,30343.4746,-3425.7625,-4969.5078,-4977.5547,-4911.8403,-4951.7827,-4750.8184,11825.0332,-5019.7993,8914.8584,6784.6704,13192.6250,5.963654,NaN,NaN,NaN
187500.0000,7423.7739,-6118.8120,5242.5566,-6151.8032,-6194.4727,-6119.9521,-6085.0610,-6014.5415,-6037.1167,31472.8418,4197.5010,-6120.3770,-6127.6636,-6062.8213,-6102.7637,-5927.2803,13223.6943,-6169.9976,10770.1650,7898.9053,14066.2871,5.967651,NaN,NaN,NaN
187500.0000,7423.7739,-6118.8120,5242.5566,-6151.8032,-6194.4727,-6119.9521,-6085.0610,-6014.5415,-6037.1167,31472.8418,4197.5010,-6120.3770,-6127.6636,-6062.8213,-6102.7637,-5927.2803,13223.6943,-6169.9976,10770.1650,7898.9053,14066.2871,5.971649,NaN,NaN,NaN
187500.0000,8060.6646,-6503.8882,7290.5576,-6531.1572,-6573.8491,-6499.5742,-6465.3535,-6394.3643,-6417.0962,31856.5547,7413.8052,-6500.6025,-6507.6206,-6443.1582,-6483.0786,-6318.8604,13735.4150,-6549.9326,11427.2168,8343.8164,14517.9717,5.975647,NaN,NaN,NaN
187500.0000,6668.4194,-5615.7861,3635.1982,-5648.9336,-5691.8491,-5617.3955,-5581.7666,-5511.5376,-5533.8892,30952.4258,1347.0055,-5616.8145,-5624.2798,-5559.3706,-5599.2461,-5384.7808,12683.9883,-5666.6362,10075.1152,7540.5396,13947.9131,5.979645,NaN,NaN,NaN
187500.0000,5091.5259,-4654.1694,-2992.5408,-4687.3169,-4730.8584,-4656.5610,-4619.3677,-4548.2891,-4569.8589,29944.5645,-4222.5352,-4653.9238,-4662.0151,-4596.8374,-4636.7354,-4441.8057,11427.5078,-4704.3491,8546.7031,6533.4819,13078.3184,5.983643,NaN,NaN,NaN
187500.0000,5674.1240,-5005.4497,-1168.3033,-5040.3628,-5083.5464,-5009.1597,-4972.5254,-4902.1621,-4924.1338,30273.0234,-3310.5168,-5007.3271,-5015.3511,-4950.1958,-4990.1162,-4674.3086,11796.9600,-5057.5962,9140.5439,6797.9478,13161.8691,5.987640,NaN,NaN,NaN
187500.0000,7522.6582,-6133.0054,5675.5996,-6165.1699,-6207.9512,-6133.4077,-6098.4946,-6027.9746,-6050.6616,31395.1699,4435.9492,-6133.7881,-6141.0747,-6076.2544,-6116.2417,-5633.9136,13194.2793,-6183.4756,10997.1924,7913.0986,14035.8672,5.991638,NaN,NaN,NaN
187500.0000,8165.2930,-6528.0278,7409.5806,-6555.2300,-6597.9888,-6523.7139,-6489.4263,-6418.2808,-6441.1914,31780.4473,7535.0859,-6524.6973,-6531.8052,-6467.2759,-6507.1738,-6071.1138,13711.2969,-6574.0278,11663.3184,8362.7041,14490.6582,5.995636,NaN,NaN,NaN
187500.0000,6791.3984,-5660.2217,4180.2900,-5692.8550,-5735.7256,-5661.2944,-5625.7329,-5555.3696,-5577.8105,30892.1211,1660.3770,-5660.7803,-5668.3799,-5603.4258,-5643.2788,-5266.5850,12667.8281,-5710.6694,10316.8496,7563.4727,13924.2197,5.999634,NaN,NaN,NaN
187500.0000,5202.3682,-4668.1392,-2486.8997,-4703.0752,-4746.5493,-4672.0508,-4634.8354,-4564.0918,-4585.8403,29869.3281,-4181.3408,-4669.5698,-4677.7954,-4612.5283,-4652.3589,-4076.4888,11405.0439,-4720.0400,8780.1670,6552.0337,13051.5859,6.003632,NaN,NaN,NaN
187500.0000,5772.3154,-5025.3423,-776.4996,-5061.3511,-5104.4453,-5029.9692,-4993.3125,-4922.4126,-4944.3398,30188.2422,-3351.1299,-5028.1812,-5036.2280,-4971.0947,-5010.9258,-4380.9639,11765.1982,-5078.5845,9362.6758,6810.6436,13130.4873,6.007629,NaN,NaN,NaN
187500.0000,7624.4702,-6169.1709,5874.5747,-6200.9771,-6243.6021,-6169.1035,-6134.3018,-6063.7598,-6086.4243,31321.8340,4435.1226,-6169.6177,-6176.8374,-6112.1514,-6152.0493,-5521.6406,13163.0088,-6219.2388,11217.4463,7924.8555,14003.0996,6.011627,NaN,NaN,NaN
187500.0000,8269.3184,-6553.7773,7520.8252,-6580.8896,-6623.6040,-6549.2397,-6515.1758,-6444.1416,-6466.8735,31705.9043,7626.7280,-6550.3125,-6557.3979,-6493.0029,-6532.9004,-5796.4106,13688.6553,-6599.7100,11893.8770,8382.4404,14464.4619,6.015625,NaN,NaN,NaN
187500.0000,6898.9551,-5692.0952,4593.5737,-5724.0581,-5767.0181,-5692.5645,-5657.0474,-5586.7959,-5609.0581,30818.3828,1849.5845,-5692.0059,-5699.4937,-5634.6733,-5674.5938,-4942.6187,12650.6396,-5741.9170,10553.3984,7588.2827,13902.6953,6.019623,NaN,NaN,NaN
187500.0000,5315.1997,-4705.8242,-1905.3744,-4743.6436,-4787.2739,-4712.4629,-4675.2920,-4605.9346,-4627.5933,29804.2402,-4172.3555,-4710.3394,-4718.6094,-4653.2754,-4693.1958,-3901.5193,11385.1514,-4760.8989,9009.3174,6574.0503,13028.6299,6.023621,NaN,NaN,NaN
187500.0000,5865.1201,-5032.2715,28.2973,-5070.5825,-5113.9448,-5039.1338,-5002.5659,-4932.9404,-4954.9346,30108.8262,-3175.2888,-5037.6582,-5045.7051,-4980.4155,-5020.4028,-3899.1946,11737.0352,-5088.0615,9580.7617,6827.0493,13103.3301,6.027618,NaN,NaN,NaN
187500.0000,7712.8267,-6194.2495,6281.7563,-6225.1172,-6267.9653,-6193.4668,-6158.6875,-6088.0112,-6110.6763,31239.3105,4720.0400,-6193.8916,-6201.1338,-6136.3135,-6176.2563,-5177.3345,13135.1807,-6243.4902,11434.1240,7940.7920,13975.1816,6.031616,NaN,NaN,NaN
187500.0000,8376.4053,-6603.7109,7633.9922,-6630.7344,-6673.5601,-6599.2852,-6565.0869,-6494.0308,-6516.8521,31639.8770,7730.8198,-6600.4028,-6607.3320,-6542.9365,-6582.7896,-5730.9648,13666.2588,-6649.6885,12116.2539,8402.1094,14439.2930,6.035614,NaN,NaN,NaN
187500.0000,7003.0474,-5715.4751,5111.5532,-5746.6108,-5789.6157,-5715.2290,-5679.7568,-5609.4160,-5631.6782,30747.5273,2085.4846,-5714.7148,-5722.1357,-5657.3159,-5697.2358,-4501.8198,12632.1104,-5764.5371,10780.8496,7611.9087,13881.4609,6.039612,NaN,NaN,NaN
187500.0000,5406.9536,-4723.9517,-1044.6534,-4762.7095,-4806.1167,-4731.4619,-4694.3579,-4625.1792,-4646.9946,29724.5566,-4136.0786,-4729.2935,-4737.5415,-4672.2520,-4712.1050,-3441.0510,11360.4746,-4779.6968,9227.4482,6592.1104,13003.5967,6.043610,NaN,NaN,NaN
187500.0000,5955.6890,-5061.7090,689.2831,-5100.3550,-5143.5161,-5068.7944,-5032.2939,-4962.8247,-4984.9082,30033.5020,-3077.5891,-5067.2744,-5075.4106,-5010.1211,-5049.9741,-3671.5422,11702.2773,-5117.5884,9785.3477,6836.2583,13070.7852,6.047607,NaN,NaN,NaN
187500.0000,7797.1152,-6209.4707,6528.5195,-6239.1094,-6281.9575,-6207.4370,-6172.7690,-6102.0708,-6124.6909,31158.5762,4912.2651,-6207.8838,-6215.1479,-6150.4175,-6190.4048,-4720.0400,13102.7705,-6257.5269,11641.0791,7952.3257,13944.5596,6.051605,NaN,NaN,NaN
187500.0000,8467.6895,-6630.4214,7727.4224,-6657.3774,-6700.2256,-6625.8169,-6591.7305,-6520.7188,-6543.5176,31563.0977,7816.9414,-6627.0239,-6634.0420,-6569.6021,-6609.6343,-5318.8882,13642.8564,-6676.4883,12333.3350,8420.5498,14414.8857,6.055603,NaN,NaN,NaN
187500.0000,7113.1743,-5762.3242,5513.5269,-5793.2144,-5836.1299,-5761.6982,-5726.2930,-5655.9077,-5678.2368,30688.3398,2290.6292,-5761.2065,-5768.7837,-5703.9414,-5743.7944,-4276.2017,12615.1006,-5811.2300,11003.7412,7635.4897,13862.2383,6.059601,NaN,NaN,NaN
187500.0000,5506.2627,-4743.4648,-61.1320,-4782.2451,-4825.6074,-4750.9077,-4713.8037,-4644.6030,-4666.4629,29656.7637,-4106.7305,-4748.8291,-4757.1216,-4691.7651,-4731.6182,-2862.2749,11343.2637,-4799.2993,9448.5957,6616.3618,12986.2510,6.063599,NaN,NaN,NaN
187500.0000,7896.0215,-6251.2686,6746.8066,-6281.1084,-6324.0234,-6249.3911,-6214.6787,-6143.9355,-6166.6895,31093.8242,4900.8657,-6250.0171,-6257.1694,-6192.4609,-6232.3589,-4482.3516,13078.8994,-6299.6152,11853.9795,7970.5200,13921.8730,6.067596,NaN,NaN,NaN
187500.0000,8564.4951,-6650.0684,7828.8770,-6677.0693,-6719.9399,-6645.4414,-6611.3999,-6540.3662,-6563.1650,31493.1816,7900.7153,-6646.8276,-6653.8013,-6589.3164,-6629.3037,-4745.2529,13623.2090,-6696.1577,12553.3877,8442.4551,14394.6123,6.071594,NaN,NaN,NaN
187500.0000,7211.2534,-5793.4824,5802.6470,-5823.4116,-5866.3940,-5791.8730,-5756.6245,-5686.0376,-5708.4341,30615.6973,2490.4314,-5791.4707,-5799.0259,-5734.0938,-5774.1929,-3809.7654,12598.3145,-5841.4941,11228.4658,7659.0264,13842.7480,6.075592,NaN,NaN,NaN
187500.0000,5611.6289,-4785.1060,751.4433,-4823.9312,-4867.4272,-4792.4375,-4755.6016,-4685.9312,-4707.8809,29593.2383,-4080.7356,-4790.5376,-4798.8301,-4733.4063,-4773.4609,-2585.2251,11323.9746,-4841.1416,9668.8057,6637.9092,12965.9785,6.079590,NaN,NaN,NaN
187500.0000,6128.7363,-5099.8408,2272.3452,-5137.5034,-5180.7095,-5105.7417,-5069.3979,-4999.5039,-5021.6323,29879.3418,-2972.1338,-5104.5122,-5112.6035,-5047.2695,-5087.2344,-2617.1880,11652.3213,-5154.9155,10209.1592,6871.7754,13025.5459,6.083588,NaN,NaN,NaN
187500.0000,7980.2656,-6272.7710,6954.2534,-6301.5601,-6344.4307,-6269.9102,-6235.3320,-6164.4321,-6187.1416,31014.4297,5119.5552,-6270.4238,-6277.7554,-6212.9355,-6252.8779,-3962.0029,13053.5527,-6320.1343,12067.4609,7988.4907,13898.5156,6.087585,NaN,NaN,NaN
187500.0000,8672.5439,-6693.4980,7940.5239,-6720.4985,-6763.3916,-6688.8042,-6654.8516,-6583.8403,-6606.6392,31433.1016,7999.3540,-6690.2568,-6697.3423,-6632.8130,-6672.7109,-4432.4399,13606.9814,-6739.6987,12778.7373,8467.7344,14376.8428,6.091583,NaN,NaN,NaN
187500.0000,7319.5479,-5824.7305,6182.2466,-5853.8545,-5896.8594,-5822.3833,-5787.1348,-5716.5928,-5739.0562,30552.5762,2714.0605,-5822.0259,-5829.6030,-5764.6714,-5804.6138,-3268.1379,12588.9717,-5872.0044,11462.7783,7690.3857,13830.7227,6.095581,NaN,NaN,NaN
187500.0000,5707.0483,-4809.8491,1629.4868,-4848.1602,-4891.6118,-4817.0244,-4780.1216,-4710.6748,-4732.6689,29519.5684,-4043.3186,-4814.9233,-4823.3052,-4757.8813,-4797.7793,-2042.0330,11307.6572,-4865.4160,9893.8877,6663.0996,12949.3936,6.099579,NaN,NaN,NaN
187500.0000,6223.0386,-5133.1001,2864.1301,-5170.4946,-5213.7676,-5139.0903,-5102.6797,-5032.9199,-5055.2046,29809.6934,-2883.9561,-5137.6377,-5145.7515,-5080.4170,-5120.4268,-2286.8516,11626.1250,-5187.9517,10421.1426,6888.3379,13001.5850,6.103577,NaN,NaN,NaN
187500.0000,8062.8105,-6279.6108,7105.7983,-6308.3550,-6351.1587,-6276.6377,-6242.0820,-6171.2271,-6193.9365,30934.3223,5301.8560,-6277.1519,-6284.5059,-6219.7080,-6259.7178,-3320.3069,13024.2266,-6326.8623,12276.7627,8002.3491,13871.5811,6.107574,NaN,NaN,NaN
187500.0000,8763.8955,-6713.9048,8036.1895,-6740.9058,-6783.7319,-6709.2559,-6675.4155,-6604.2476,-6627.0908,31358.2441,8079.3062,-6710.6865,-6717.7271,-6653.2422,-6693.1851,-3841.0579,13587.8262,-6760.1284,12999.9082,8489.9521,14357.3740,6.111572,NaN,NaN,NaN
187500.0000,7434.5254,-5875.4463,6452.1216,-5903.9673,-5946.8823,-5872.4961,-5837.3589,-5766.6606,-5789.2358,30499.9375,2892.0474,-5872.2725,-5879.6934,-5814.8506,-5854.7485,-2932.1465,12580.9248,-5922.1167,11694.4551,7722.4155,13821.0664,6.115570,NaN,NaN,NaN
187500.0000,5807.2959,-4835.2632,2533.2349,-4872.6802,-4916.0425,-4841.4546,-4804.6860,-4735.0830,-4757.2334,29455.3516,-4015.9377,-4839.4878,-4847.7354,-4782.3345,-4822.2544,-1417.1899,11296.1016,-4889.9355,10118.5000,6692.1567,12938.2617,6.119568,NaN,NaN,NaN
187500.0000,6310.3218,-5157.8213,3585.5774,-5194.3442,-5237.4604,-5162.8950,-5126.5288,-5056.7246,-5079.0313,29737.6309,-2882.9949,-5161.4648,-5169.5337,-5104.1772,-5144.1646,-1695.0892,11608.9590,-5211.8008,10636.0996,6912.9248,12987.6152,6.123566,NaN,NaN,NaN
187500.0000,8163.8628,-6320.5591,7282.4438,-6348.8564,-6391.5703,-6317.2734,-6282.6060,-6211.7505,-6234.4824,30877.2129,5314.5967,-6317.7427,-6325.0518,-6260.2095,-6300.2188,-2910.3982,13009.5195,-6367.4976,12492.7920,8028.6792,13859.0420,6.127563,NaN,NaN,NaN
187500.0000,8861.3037,-6732.1890,8139.4097,-6759.3687,-6802.1274,-6727.7632,-6693.7661,-6622.7100,-6645.4863,31295.7715,8167.4834,-6729.1265,-6736.1895,-6671.7051,-6711.6250,-3118.4258,13576.8965,-6778.6582,13220.2070,8518.8750,14346.3330,6.131561,NaN,NaN,NaN
187500.0000,7529.5425,-5896.9937,6639.4736,-5925.5142,-5968.3179,-5893.9985,-5858.8613,-5788.2075,-5810.6709,30433.1738,3166.9961,-5893.7974,-5901.2178,-5836.3979,-5876.3179,-2255.2686,12571.2021,-5943.7310,11914.8877,7750.8696,13809.2871,6.135559,NaN,NaN,NaN
187500.0000,5908.5942,-4880.1011,3206.7600,-4916.9141,-4960.3213,-4885.8008,-4848.9204,-4779.3838,-4801.5122,29397.7734,-3955.1187,-4883.8560,-4892.1484,-4826.6577,-4866.6226,-1066.4688,11283.8086,-4934.3262,10332.1387,6718.2188,12925.8789,6.139557,NaN,NaN,NaN
187500.0000,6393.6714,-5176.8428,4125.9976,-5212.2925,-5255.4761,-5181.0000,-5144.4775,-5074.7622,-5097.0024,29667.2676,-2698.0789,-5179.4800,-5187.6162,-5122.1929,-5162.1797,-1074.6495,11590.0049,-5229.8833,10840.0146,6934.0474,12971.4766,6.143555,NaN,NaN,NaN
187500.0000,8243.2783,-6336.4063,7410.1172,-6364.4800,-6407.2393,-6332.8970,-6298.1401,-6227.4639,-6250.0840,30803.8984,5575.0615,-6333.3442,-6340.6533,-6275.7886,-6315.9097,-2253.9946,12990.3193,-6383.1885,12695.8350,8049.7344,13842.4121,6.147552,NaN,NaN,NaN
187500.0000,8957.3271,-6762.4976,8242.5410,-6789.8784,-6832.6377,-6758.2285,-6724.2314,-6653.3540,-6676.0410,31236.5840,8254.5215,-6759.7261,-6766.6997,-6702.2148,-6742.1577,-2622.2395,13561.8311,-6809.1680,13427.4746,8542.8145,14331.6250,6.151550,NaN,NaN,NaN
187500.0000,7623.1514,-5911.1646,6839.4326,-5938.9702,-5981.9077,-5907.5435,-5872.3394,-5801.8643,-5824.2163,30369.9629,3422.2754,-5907.2754,-5914.7407,-5849.9209,-5889.7964,-1488.2686,12562.2832,-5957.2314,12128.2568,7780.2842,13799.7207,6.155548,NaN,NaN,NaN
187500.0000,5994.9390,-4901.2012,3872.9089,-4936.1816,-4979.5884,-4905.1123,-4868.3887,-4798.7852,-4820.8018,29328.8184,-3874.6748,-4903.1680,-4911.4829,-4846.0146,-4885.9121,-390.7308,11273.5039,-4953.6382,10541.2832,6746.7842,12916.2012,6.159546,NaN,NaN,NaN
187500.0000,6479.1670,-5202.2563,4629.5601,-5236.3208,-5279.5938,-5204.9165,-5168.8184,-5098.9468,-5121.2090,29602.4922,-2606.5261,-5203.6870,-5211.8457,-5146.3550,-5186.4092,-568.3378,11570.0000,-5254.1572,11035.8604,6954.2085,12954.7354,6.163544,NaN,NaN,NaN
187500.0000,8318.5371,-6334.4844,7529.6987,-6362.0439,-6405.0264,-6330.4160,-6295.9497,-6225.1616,-6247.8486,30730.2051,5735.5020,-6331.1538,-6338.4180,-6273.6201,-6313.7192,-1428.3435,12968.7725,-6380.9312,12890.1611,8068.8677,13824.1738,6.167542,NaN,NaN,NaN
187500.0000,9040.8105,-6776.2886,8332.9316,-6803.5801,-6846.4956,-6772.0195,-6738.1343,-6667.0557,-6689.8770,31167.9414,8326.5391,-6773.5620,-6780.6025,-6716.0957,-6756.0605,-1894.9808,13550.0967,-6823.0708,13633.0215,8570.3291,14320.5166,6.171539,NaN,NaN,NaN
187500.0000,7728.0034,-5953.4092,7003.8740,-5981.1479,-6023.9961,-5949.6094,-5914.5171,-5843.8633,-5866.3491,30320.3867,3611.6172,-5949.5649,-5956.9854,-5892.1206,-5931.9961,-1041.7925,12558.9531,-5999.4316,12341.6943,7814.5498,13795.1162,6.175537,NaN,NaN,NaN
187500.0000,6086.1563,-4918.9707,4618.1387,-4952.3862,-4995.5923,-4921.3174,-4884.4370,-4814.7666,-4836.8501,29267.7969,-3807.3066,-4919.3281,-4927.4868,-4862.0186,-4902.0054,347.8155,11267.4697,-4969.7314,10749.2891,6778.9263,12910.7920,6.179535,NaN,NaN,NaN
187500.0000,6555.8560,-5211.5771,5177.7368,-5243.8979,-5286.9697,-5212.6055,-5176.3062,-5106.4121,-5128.5854,29531.5488,-2502.0764,-5211.1304,-5219.2217,-5153.8428,-5193.8970,206.7313,11556.5664,-5261.5332,11232.9580,6980.5166,12944.8340,6.183533,NaN,NaN,NaN
187500.0000,6555.8560,-5211.5771,5177.7368,-5243.8979,-5286.9697,-5212.6055,-5176.3062,-5106.4121,-5128.5854,29531.5488,-2502.0764,-5211.1304,-5219.2217,-5153.8428,-5193.8970,206.7313,11556.5664,-5261.5332,11232.9580,6980.5166,12944.8340,6.187531,NaN,NaN,NaN
187500.0000,8403.5625,-6357.7969,7632.1816,-6385.4238,-6428.1157,-6353.7515,-6319.2402,-6248.4077,-6271.0498,30669.7891,5816.2144,-6354.4443,-6361.7310,-6296.9556,-6336.9429,-879.8987,12951.6289,-6404.2441,13082.6768,8092.5156,13811.8125,6.191528,NaN,NaN,NaN
187500.0000,9125.8818,-6784.7822,8425.0654,-6812.2749,-6854.9893,-6780.5801,-6746.7397,-6675.7280,-6698.5269,31105.0449,8403.0713,-6782.3013,-6789.2080,-6724.8350,-6764.7329,-1099.1246,13537.8701,-6831.7212,13833.4492,8599.0283,14312.1348,6.195526,NaN,NaN,NaN
187500.0000,7816.9858,-5969.5474,7124.5288,-5996.9507,-6039.7764,-5965.4346,-5930.4092,-5859.7109,-5882.2861,30258.8301,3866.0469,-5965.3896,-5972.7881,-5908.0352,-5947.9780,-283.5542,12555.8242,-6015.2788,12549.0508,7848.0771,13791.0703,6.199524,NaN,NaN,NaN
187500.0000,6180.7935,-4947.3125,5197.7417,-4978.7168,-5021.9673,-4947.7598,-4910.9238,-4841.1196,-4863.3369,29214.4219,-3727.1755,-4945.6138,-4953.8169,-4888.5723,-4928.4702,927.1057,11261.1211,-4996.1514,10949.5605,6808.9224,12905.2041,6.203522,NaN,NaN,NaN
187500.0000,6631.2261,-5215.7349,5642.1611,-5246.9600,-5289.9424,-5215.8018,-5179.3682,-5109.3853,-5131.7144,29465.3418,-2315.0371,-5214.2593,-5222.1274,-5157.0166,-5196.9146,1021.5864,11543.2002,-5264.6401,11422.5010,7005.3940,12936.1611,6.207520,NaN,NaN,NaN
187500.0000,8478.7764,-6370.2915,7720.8286,-6399.7959,-6442.5103,-6368.1685,-6333.5454,-6262.7798,-6285.5117,30603.4492,6034.0991,-6368.9282,-6376.0137,-6311.4395,-6351.3149,-179.0822,12940.7881,-6418.6606,13275.3936,8119.4497,13804.3477,6.211517,NaN,NaN,NaN
187500.0000,9221.6816,-6807.7598,8527.8828,-6844.4390,-6887.2651,-6812.8340,-6778.9263,-6708.0039,-6730.8027,31055.0215,8491.1143,-6814.5103,-6821.4839,-6757.0215,-6796.9194,-572.0929,13534.4727,-6864.0195,14034.8389,8630.5000,14307.7539,6.215515,NaN,NaN,NaN
187500.0000,7910.8633,-5977.9517,7230.9233,-6006.3604,-6049.2090,-5974.8672,-5939.8418,-5869.1655,-5891.6069,30203.7109,4195.1543,-5974.7554,-5982.2432,-5917.4004,-5957.1865,573.7916,12556.8516,-6024.7114,12757.5928,7883.8174,13790.8242,6.219513,NaN,NaN,NaN
187500.0000,6263.8750,-4966.0879,5490.6387,-4994.4077,-5037.6138,-4963.5176,-4926.8608,-4856.8105,-4878.9834,29150.1602,-3575.5862,-4961.2822,-4969.5972,-4904.1064,-4944.1162,1636.5723,11256.3379,-5011.7974,11150.7041,6839.6782,12901.2695,6.223511,NaN,NaN,NaN
187500.0000,6711.0664,-5236.3208,5858.2803,-5265.6460,-5308.7852,-5234.5547,-5198.3003,-5128.1606,-5150.4897,29402.2891,-2179.2280,-5232.9453,-5241.0591,-5175.6582,-5215.7349,1555.5919,11525.4756,-5283.3042,11609.3613,7025.3540,12922.6387,6.227509,NaN,NaN,NaN
187500.0000,8550.0557,-6362.4688,7799.9761,-6390.3633,-6433.2119,-6358.7803,-6324.1802,-6253.4814,-6276.1685,30532.2363,6212.6450,-6359.4956,-6366.7153,-6301.9849,-6341.9941,715.1440,12924.0244,-6409.2061,13463.8857,8139.7451,13790.7129,6.231506,NaN,NaN,NaN
187500.0000,9300.8066,-6821.5732,8613.6465,-6850.7871,-6893.5908,-6819.2041,-6785.2295,-6714.3296,-6737.1284,30986.6250,8554.9512,-6820.7686,-6827.7871,-6763.3472,-6803.3564,202.7080,13526.1357,-6870.3003,14235.1328,8657.4111,14299.4385,6.235504,NaN,NaN,NaN
187500.0000,8012.4072,-6013.6475,7338.9937,-6041.0283,-6083.8540,-6009.5791,-5974.5317,-5903.9004,-5926.4756,30154.1563,4398.2197,-6009.5566,-6016.8438,-5952.1797,-5992.1670,1069.3969,12555.6895,-6059.4683,12968.7725,7918.1050,13789.3721,6.239502,NaN,NaN,NaN
187500.0000,6354.5781,-4974.8052,5633.3101,-5001.5381,-5044.6543,-4970.7148,-4933.9688,-4864.0522,-4886.1357,29090.7051,-3433.0938,-4968.5469,-4976.7275,-4911.3037,-4951.3359,2474.9639,11255.1309,-5018.9722,11361.2344,6874.3906,12901.2480,6.243500,NaN,NaN,NaN
187500.0000,6791.7563,-5248.2788,6023.5044,-5275.2573,-5318.2847,-5244.2109,-5207.8447,-5137.8613,-5159.9673,29335.5234,-2046.9503,-5242.6240,-5250.6035,-5185.2021,-5225.3013,2316.9370,11519.1943,-5292.8706,11814.3047,7056.1104,12919.5537,6.247498,NaN,NaN,NaN
187500.0000,8642.5918,-6377.1982,7898.7261,-6417.2749,-6460.0117,-6385.5356,-6351.0020,-6280.3706,-6303.0576,30477.2949,6300.5317,-6386.5190,-6393.6270,-6328.8740,-6368.9951,1247.8755,12915.8213,-6436.1621,13668.9854,8169.7412,13786.4883,6.251495,NaN,NaN,NaN
187500.0000,9392.1807,-6814.5771,8708.6641,-6862.0747,-6904.7217,-6830.2905,-6796.3828,-6725.5503,-6748.3491,30928.3086,8633.0479,-6832.2129,-6838.9629,-6774.5229,-6814.6665,988.7070,13523.3857,-6881.5879,14448.1221,8691.9668,14298.9473,6.255493,NaN,NaN,NaN
187500.0000,8104.3848,-6034.4565,7436.0449,-6062.0386,-6104.7979,-6030.5229,-5995.3857,-5924.7988,-5947.3965,30094.4102,4588.5000,-6030.5898,-6037.8540,-5973.1460,-6013.1777,1746.5876,12554.2363,-6080.4790,13185.7627,7954.1807,13790.0420,6.259491,NaN,NaN,NaN
187500.0000,6456.3906,-5008.1538,5740.3301,-5034.8867,-5078.0928,-5004.0635,-4967.4292,-4897.4014,-4919.5293,29042.1563,-3386.8926,-5001.8955,-5010.0762,-4944.7422,-4984.6846,2987.2881,11254.1699,-5052.4551,11575.7002,6909.9521,12902.8350,6.263489,NaN,NaN,NaN
187500.0000,6871.5293,-5248.0552,6107.6587,-5275.0337,-5318.0835,-5243.9648,-5207.6436,-5137.4814,-5159.6987,29271.0391,-1824.7740,-5242.2886,-5250.3350,-5185.0010,-5225.0332,3169.5667,11509.9854,-5292.7363,12015.9170,7083.9380,12915.4854,6.267487,NaN,NaN,NaN
187500.0000,8716.1963,-6386.0498,7976.8232,-6421.4995,-6464.1914,-6389.8940,-6355.3159,-6284.4385,-6307.1704,30408.0723,6503.0835,-6390.5869,-6397.7842,-6333.0762,-6373.1304,2020.7988,12904.3096,-6440.3643,13867.8486,8195.4014,13779.9395,6.271484,NaN,NaN,NaN
187500.0000,9488.1143,-6813.1470,8808.3975,-6889.9922,-6932.7061,-6858.2524,-6824.4121,-6753.4453,-6776.2886,30877.5039,8713.0674,-6860.0854,-6866.9922,-6802.5073,-6842.5615,1537.6659,13519.6533,-6909.5723,14656.8877,8724.1318,14297.5615,6.275482,NaN,NaN,NaN
187500.0000,8200.5420,-6033.8979,7536.6504,-6070.8228,-6113.5820,-6039.2622,-6004.2373,-5933.4937,-5956.1362,30040.9453,4887.9688,-6039.4189,-6046.6831,-5981.9077,-6021.9399,2605.5652,12560.6074,-6089.2632,13403.3125,7992.1787,13794.1777,6.279480,NaN,NaN,NaN
187500.0000,6543.4058,-5022.6157,5832.2852,-5049.5718,-5092.7329,-5018.7266,-4982.0693,-4912.0864,-4934.1699,28981.5176,-3192.2314,-5016.6699,-5024.9180,-4959.4048,-4999.4146,3726.6616,11255.1758,-5067.1182,11786.6553,6944.3066,12904.8018,6.283478,NaN,NaN,NaN
187500.0000,6961.2720,-5273.9165,6202.7432,-5300.9844,-5344.0562,-5269.9155,-5233.7280,-5163.5659,-5185.7612,29218.4453,-1726.6274,-5268.3730,-5276.4419,-5211.0410,-5251.1621,3708.0425,11503.9727,-5318.7539,12217.2617,7113.8672,12914.3457,6.287476,NaN,NaN,NaN
