Fp1,Fp2,F3,F4,C3,C4,P3,P4,O1,O2,F7,F8,T7,T8,P7,P8,Fz,Cz,Pz,AFz,Cpz,POz,TimeStamp,Event,EventTime,EventFile
191.5321,-145.8675,404.9465,-291.5785,52062.7539,51241.1055,65914.7344,43060.0547,1472.4882,3282.3982,1095.6378,2892.4497,66405.4453,53695.4375,47682.9766,44111.3438,2911.4041,3853.9099,3534.6377,32754.0449,42095.6211,44463.8555,91.519531,NaN,NaN,NaN
3730.8860,3459.3569,3581.2859,3219.2100,52049.9258,51053.9531,66047.7969,41649.9258,3270.3953,2951.6372,3896.6465,3433.3396,66615.0391,53683.9258,47798.1094,42611.6328,3505.3345,1775.5778,3293.7754,33152.0156,41223.5234,44600.8047,91.523529,NaN,NaN,NaN
3002.0403,2727.0916,2765.3801,2650.0452,52021.6719,51132.6328,66028.2109,41927.6484,3077.4998,3059.6409,3318.2505,3406.6741,66558.2813,53698.4766,47773.6797,42942.8164,3441.1404,1961.5667,3352.2026,33078.6797,41416.1953,44576.7969,91.527527,NaN,NaN,NaN
-1605.7716,-1795.9403,-1747.3699,-1714.6917,52018.2734,51369.6953,65893.8984,43458.6055,-57.4887,3470.4434,-1023.6204,2084.6130,66324.6172,53727.1992,47653.3359,44605.7891,1773.6779,4126.7578,3600.0613,32651.5605,42359.0352,44426.7266,91.531525,NaN,NaN,NaN
-3165.2305,-3215.4324,-3164.4258,-3296.6587,52046.0117,51433.0156,65832.3438,44108.5938,-2329.1411,3610.5889,-2945.3115,825.8969,66240.4453,53728.2031,47604.3398,45278.8867,413.8202,4708.9985,3696.8889,32465.6621,42745.3398,44363.3164,91.535522,NaN,NaN,NaN
206.5972,-128.2319,393.6813,-269.8526,52058.9531,51236.7227,65911.1094,43057.8164,1487.1285,3275.7822,1071.7885,2926.8044,66401.1094,53691.7500,47678.6367,44108.1250,2934.6274,3861.1072,3533.8555,32750.8027,42095.3516,44462.3789,91.539520,NaN,NaN,NaN
3726.0803,3455.7583,3574.7815,3217.2876,52043.1953,51047.7188,66041.4922,41644.8750,3264.4946,2938.6284,3889.0247,3426.2988,66608.5078,53678.1602,47791.6719,42605.7539,3503.3677,1694.3516,3291.5847,33147.4141,41221.9336,44598.0078,91.543518,NaN,NaN,NaN
3045.7380,2782.5908,2823.2935,2700.9177,52025.1602,51135.2891,66030.8984,41930.3945,3100.9468,3072.4707,3345.9219,3413.5583,66559.7578,53700.0195,47775.9375,42946.2148,3442.9731,1831.6136,3348.2913,33073.0469,41412.2813,44572.7070,91.547516,NaN,NaN,NaN
-1512.4755,-1692.6305,-1638.7405,-1625.9329,52016.1055,51366.4961,65891.9531,43455.9023,45.6870,3465.6379,-963.1813,2204.2395,66322.5859,53725.3203,47651.1445,44602.3008,1947.8875,4131.1836,3615.8640,32650.2656,42358.9453,44426.9727,91.551514,NaN,NaN,NaN
284.5601,-37.2604,444.3080,-188.9840,52065.1250,51242.4688,65916.2500,43065.0586,1372.1512,3293.0601,1014.1880,2818.5103,66404.8438,53695.5273,47683.5352,44116.2852,2805.1438,3860.6826,3532.5366,32746.0859,42093.8320,44459.4492,91.555511,NaN,NaN,NaN
3739.2456,3471.6729,3584.2139,3230.5869,52042.2344,51045.5273,66040.3281,41644.3828,3262.2371,2939.2095,3886.5435,3423.6836,66606.5859,53676.1914,47789.8398,42604.6367,3500.1936,1821.1306,3290.1321,33143.2773,41220.0117,44595.6641,91.559509,NaN,NaN,NaN
2992.0491,2722.0847,2753.4443,2630.6438,52014.7422,51124.8516,66021.4219,41920.7383,3054.9917,3051.6165,3284.4324,3405.6458,66550.3750,53690.8086,47766.1914,42934.9297,3437.5417,1953.6095,3345.3408,33067.9961,41408.9961,44569.5117,91.563507,NaN,NaN,NaN
-1614.0417,-1794.6215,-1760.5798,-1756.7577,52018.4961,51368.5313,65893.8594,43458.0273,-46.4022,3475.3608,-1093.8273,2170.1531,66323.4609,53725.9492,47652.6445,44604.8047,1832.0830,4122.9805,3597.3342,32644.6328,42354.9453,44423.0195,91.567505,NaN,NaN,NaN
-3158.9719,-3208.4587,-3158.5024,-3289.0366,52042.1445,51428.8828,65828.9688,44106.8516,-2343.0662,3602.2292,-2943.5459,863.4702,66236.6641,53724.9648,47600.7891,45276.2266,496.0746,4708.0146,3697.7383,32461.3262,42745.6328,44362.7109,91.571503,NaN,NaN,NaN
208.9441,-112.0493,391.9155,-235.7215,52057.3438,51234.9141,65909.4844,43059.7617,1447.5659,3272.6753,1069.9332,2884.8054,66398.7188,53689.8945,47676.7852,44109.2891,2915.2932,3857.4417,3533.2295,32745.6621,42096.6719,44461.3750,91.575500,NaN,NaN,NaN
3732.8752,3467.2249,3579.4753,3230.1174,52048.7617,51052.0313,66046.5859,41651.7148,3268.8977,2949.0891,3893.6514,3431.0820,66612.0859,53681.7813,47796.1406,42612.0586,3504.8428,1706.9580,3293.3953,33144.5977,41224.3711,44599.2383,91.579498,NaN,NaN,NaN
3011.8528,2741.2849,2776.2654,2661.0645,52021.6953,51130.7539,66027.8125,41926.8633,3081.0537,3064.8711,3319.0327,3412.4185,66555.4688,53695.8828,47771.9336,42940.9180,3447.9128,1839.8391,3347.2407,33067.8633,41410.6055,44571.1211,91.583496,NaN,NaN,NaN
-1580.1342,-1765.0948,-1721.0619,-1697.1232,52010.4492,51360.1953,65886.6172,43450.8516,14.9533,3456.9653,-1011.2599,2204.0608,66316.2578,53719.2188,47645.0664,44595.8867,1964.6289,4127.5625,3609.9185,32641.9063,42354.6094,44422.2148,91.587494,NaN,NaN,NaN
-3158.0107,-3201.8203,-3167.9797,-3286.4438,52043.8242,51430.0000,65830.4453,44109.0664,-2342.4404,3603.5706,-2976.9392,833.5189,66237.1328,53725.6328,47601.7031,45278.0156,477.4109,4707.9028,3711.6858,32459.3145,42746.3477,44362.5781,91.591492,NaN,NaN,NaN
236.3920,-59.7015,381.2314,-212.0063,52066.1289,51242.5117,65917.3906,43068.8828,1354.1357,3289.1931,960.8791,2838.0679,66405.1563,53696.6680,47683.9570,44118.6094,2829.7754,3867.1646,3534.4141,32746.1309,42099.8438,44463.6992,91.595490,NaN,NaN,NaN
3732.6519,3469.5046,3575.9661,3228.9553,52041.4297,51044.3398,66039.7656,41646.0156,3256.3137,2933.2192,3878.6533,3422.0742,66605.3359,53675.7227,47788.9453,42604.9492,3503.4570,1833.5359,3293.0376,33141.8906,41224.2813,44598.3008,91.599487,NaN,NaN,NaN
3732.6519,3469.5046,3575.9661,3228.9553,52041.4297,51044.3398,66039.7656,41646.0156,3256.3137,2933.2192,3878.6533,3422.0742,66605.3359,53675.7227,47788.9453,42604.9492,3503.4570,1833.5359,3293.0376,33141.8906,41224.2813,44598.3008,91.603485,NaN,NaN,NaN
3005.5271,2735.0488,2767.9951,2652.7944,52021.0000,51129.6367,66027.1641,41926.3711,3061.0266,3061.6970,3298.8938,3405.3999,66554.9766,53695.5703,47771.3555,42939.9141,3430.6128,1853.4736,3347.8218,33067.1484,41411.5664,44571.9922,91.607483,NaN,NaN,NaN
-1589.3655,-1774.3037,-1733.6683,-1716.0552,52017.4453,51366.0039,65893.0781,43456.6836,-24.7210,3469.0129,-1077.3317,2193.3096,66321.9375,53724.9414,47651.1914,44601.8984,1905.5532,4102.5283,3613.9194,32643.3574,42356.8906,44425.0508,91.611481,NaN,NaN,NaN
-1589.3655,-1774.3037,-1733.6683,-1716.0552,52017.4453,51366.0039,65893.0781,43456.6836,-24.7210,3469.0129,-1077.3317,2193.3096,66321.9375,53724.9414,47651.1914,44601.8984,1905.5532,4102.5283,3613.9194,32643.3574,42356.8906,44425.0508,91.615479,NaN,NaN,NaN
-3159.4861,-3210.1350,-3161.1177,-3294.8035,52038.0117,51424.2305,65825.1953,44104.6406,-2314.7913,3591.0535,-2949.8267,860.9445,66232.2188,53721.3203,47596.5391,45272.6055,576.2950,4708.5962,3723.3757,32457.9512,42747.3516,44362.9375,91.619476,NaN,NaN,NaN
175.5953,-176.0423,358.0526,-335.9020,52061.6367,51238.3984,65913.1875,43066.4922,1437.8206,3281.4373,1044.8099,2892.3826,66400.5703,53692.6641,47679.6445,44115.6367,2928.3689,3854.3123,3535.1519,32742.4219,42099.0859,44461.5078,91.623474,NaN,NaN,NaN
175.5953,-176.0423,358.0526,-335.9020,52061.6367,51238.3984,65913.1875,43066.4922,1437.8206,3281.4373,1044.8099,2892.3826,66400.5703,53692.6641,47679.6445,44115.6367,2928.3689,3854.3123,3535.1519,32742.4219,42099.0859,44461.5078,91.627472,NaN,NaN,NaN
3724.0911,3448.0247,3572.9932,3203.3401,52048.6484,51050.9570,66046.5625,41654.0391,3266.3049,2946.5410,3890.4551,3430.9702,66610.5000,53681.3320,47794.9805,42612.9492,3508.7766,1779.0647,3296.0552,33142.8750,41227.4336,44600.5781,91.631470,NaN,NaN,NaN
3005.5271,2737.5522,2770.2080,2660.9526,52019.6172,51128.0508,66026.3828,41925.6367,3063.1724,3055.0811,3307.5664,3400.3484,66553.6094,53694.5195,47770.0586,42938.0117,3438.9946,1908.8165,3350.4146,33068.0195,41413.9375,44574.0938,91.635468,NaN,NaN,NaN
-1594.6852,-1776.4496,-1736.4846,-1707.3604,52018.1641,51366.5859,65894.1484,43457.4883,-83.9084,3467.6047,-1049.9285,2136.1785,66322.6328,53725.5000,47651.9727,44602.2109,1860.1569,4118.6665,3614.4780,32643.5371,42358.3203,44426.3711,91.639465,NaN,NaN,NaN
-1594.6852,-1776.4496,-1736.4846,-1707.3604,52018.1641,51366.5859,65894.1484,43457.4883,-83.9084,3467.6047,-1049.9285,2136.1785,66322.6328,53725.5000,47651.9727,44602.2109,1860.1569,4118.6665,3614.4780,32643.5371,42358.3203,44426.3711,91.643463,NaN,NaN,NaN
-3165.2527,-3213.1301,-3163.4646,-3296.6140,52043.8672,51428.9492,65830.5313,44110.5859,-2274.7593,3602.0505,-2948.7986,861.5703,66236.7578,53725.7891,47601.3242,45278.9570,528.4623,4710.3394,3715.0386,32457.6152,42748.5820,44363.7422,91.647461,NaN,NaN,NaN
174.8130,-149.4661,368.1332,-291.7797,52057.6563,51234.0391,65909.3438,43064.8594,1470.4541,3273.1445,1046.2852,2900.7422,66396.8125,53689.3789,47675.6445,44113.3789,2931.1182,3862.1130,3532.4026,32739.8945,42099.7109,44460.6133,91.651459,NaN,NaN,NaN
3722.1240,3453.6350,3571.9426,3215.7900,52045.1172,51047.1367,66042.9688,41652.0039,3263.6899,2940.2153,3886.1411,3426.9917,66607.4609,53678.4258,47791.8047,42610.8945,3507.9497,1725.4429,3294.1777,33139.5664,41226.5156,44598.7930,91.655457,NaN,NaN,NaN
3015.3843,2746.3364,2777.5842,2667.1218,52024.0195,51131.1094,66030.0703,41929.1445,3075.8010,3065.7205,3318.4070,3407.6575,66557.0547,53697.7617,47773.6992,42942.1484,3444.2920,1854.3007,3349.7441,33066.7656,41413.4453,44573.9141,91.659454,NaN,NaN,NaN
-1578.8601,-1762.6809,-1723.6995,-1691.8929,52014.8555,51362.9883,65891.0625,43454.4727,-28.1855,3460.7876,-1026.7050,2161.0784,66319.7031,53723.0430,47649.0234,44598.7266,1937.6503,4104.8755,3614.9700,32642.0391,42358.1406,44426.0586,91.663452,NaN,NaN,NaN
-3170.6619,-3220.4170,-3152.4229,-3304.7275,52042.1016,51427.6055,65828.7891,44109.9141,-2393.1118,3599.7261,-2927.9443,746.7494,66234.8359,53724.3828,47599.8945,45278.1719,433.7132,4709.2441,3723.8899,32455.2227,42748.4023,44362.8008,91.667450,NaN,NaN,NaN
164.8888,-182.3232,416.2118,-347.2791,52067.8281,51243.2266,65918.2656,43075.8555,1416.6088,3292.9929,1106.9254,2804.2051,66404.5938,53697.4258,47684.3164,44125.1367,2791.2634,3869.2209,3538.4150,32741.4160,42103.6875,44463.5859,91.671448,NaN,NaN,NaN
3721.6548,3445.9907,3576.8379,3199.5181,52046.6172,51047.9844,66044.1484,41654.7539,3266.6851,2938.9861,3890.8574,3428.8469,66608.4453,53679.9258,47792.7656,42613.0195,3512.1519,1817.3533,3297.9551,33141.4883,41230.8320,44602.1016,91.675446,NaN,NaN,NaN
2985.5894,2703.8682,2739.7874,2634.2646,52024.5313,51131.5352,66030.5391,41929.6602,3083.7358,3062.7253,3327.1240,3406.7634,66557.2578,53698.4336,47774.2383,42942.3281,3446.2366,1938.3208,3351.5769,33067.5273,41415.1211,44575.6367,91.679443,NaN,NaN,NaN
-1617.3275,-1818.8508,-1762.3456,-1699.5819,52022.4336,51369.1367,65897.5234,43461.0195,-9.1866,3476.9478,-974.9160,2171.4272,66324.8672,53728.0703,47655.0117,44605.9453,1917.0420,4120.0747,3614.8582,32640.9434,42357.5391,44425.6758,91.683441,NaN,NaN,NaN
209.0112,-115.3573,389.7026,-262.1412,52063.0430,51238.7344,65913.7969,43072.7266,1449.4435,3281.9736,1055.2258,2891.3320,66400.0156,53693.4258,47679.8906,44121.4688,2937.0862,3871.4785,3538.3257,32739.0234,42103.6211,44462.2891,91.687439,NaN,NaN,NaN
3026.1133,2768.3752,2797.0972,2688.9819,52019.9063,51125.8828,66025.8906,41925.4766,3076.6282,3055.9526,3319.7703,3407.5010,66552.7656,53693.8281,47769.3438,42937.6563,3452.1597,1979.3363,3349.3193,33063.7930,41412.8633,44572.9102,91.691437,NaN,NaN,NaN
-3176.2051,-3226.2507,-3158.3909,-3305.8677,52051.4883,51435.5625,65836.9297,44120.4180,-2401.6055,3616.3110,-2934.9180,720.8214,66242.0078,53731.7148,47607.8047,45289.2813,354.6775,4714.2285,3686.5400,32456.1406,42752.7148,44365.7070,91.695435,NaN,NaN,NaN
198.3941,-131.5847,440.2846,-256.2851,52064.2305,51239.2266,65914.4844,43075.7422,1428.1647,3285.1921,1112.9827,2818.1301,66400.3438,53694.1172,47680.3594,44124.5977,2811.0894,3877.1782,3536.6716,32737.9277,42105.0742,44462.3359,91.699432,NaN,NaN,NaN
3727.5779,3459.2229,3579.9224,3223.4790,52044.8281,51045.6172,66042.0234,41655.3789,3265.9697,2936.7732,3889.8740,3426.9917,66605.2422,53677.4453,47790.2852,42613.4648,3512.4424,1817.0850,3296.7705,33136.8164,41229.9805,44599.2383,91.703430,NaN,NaN,NaN
2996.0278,2716.1616,2748.9067,2643.7195,52028.6914,51134.0391,66033.8438,41933.5938,3094.8000,3071.5542,3339.3728,3414.2734,66559.8281,53700.9375,47777.2109,42946.5938,3455.4678,1841.3813,3351.4429,33065.4258,41414.9648,44574.9883,91.707428,NaN,NaN,NaN
-1603.7823,-1802.3552,-1750.7450,-1679.6665,52020.5547,51366.1406,65895.4922,43459.1641,44.7482,3470.1082,-943.2436,2186.2463,66323.0078,53726.6836,47652.8906,44603.5742,1988.3441,4119.6274,3615.9087,32640.5410,42358.8125,44426.8398,91.711426,NaN,NaN,NaN
153.3106,-108.3836,308.0964,-239.1860,52069.5938,51243.8516,65918.7109,43082.2930,1363.0764,3292.9260,979.4310,2895.2214,66404.3672,53698.5898,47684.6953,44131.8633,2943.7246,3880.3298,3540.3596,32739.2910,42108.4258,44464.2773,91.715424,NaN,NaN,NaN
3729.3884,3474.6680,3574.2002,3242.0757,52053.0078,51052.5430,66048.6016,41664.5000,3261.9465,2950.4302,3886.4988,3434.1890,66611.9766,53684.6172,47797.1680,42623.7461,3517.0022,1874.3054,3299.4302,33139.3438,41234.2969,44602.2109,91.719421,NaN,NaN,NaN
3031.1199,2766.3413,2793.7222,2684.0645,52020.6445,51125.2344,66025.8672,41925.9688,3071.7107,3052.6670,3324.8442,3401.4883,66552.6094,53694.7891,47769.4766,42938.0352,3442.7944,1950.6367,3350.7051,33064.3750,41414.2031,44574.0273,91.723419,NaN,NaN,NaN
-1555.2344,-1735.5459,-1700.6324,-1665.8531,52018.7227,51363.3672,65892.9609,43456.6406,5.4538,3468.8789,-1015.1268,2156.1162,66320.1484,53724.1367,47650.3633,44601.1836,1886.0178,4118.0405,3598.5190,32636.6523,42354.6328,44422.7031,91.727417,NaN,NaN,NaN
-3161.7659,-3209.9116,-3164.2468,-3293.9766,52044.3359,51426.8477,65828.9063,44115.1016,-2323.7991,3603.2351,-2955.2581,860.8327,66233.7188,53724.5625,47599.4453,45283.4688,558.1007,4711.7700,3685.0872,32450.6191,42749.4297,44360.7227,91.731415,NaN,NaN,NaN
196.7847,-126.8908,375.7999,-271.6631,52062.3281,51236.2969,65911.4063,43077.7539,1416.8771,3276.9221,1024.0452,2904.4973,66397.8203,53692.7344,47677.6758,44126.8125,2956.4875,3869.6008,3537.7000,32737.9727,42109.0742,44463.0703,91.735413,NaN,NaN,NaN
3731.5789,3464.4756,3580.5481,3227.1001,52050.5938,51049.3945,66045.5781,41663.4063,3265.6121,2945.4680,3889.0469,3432.0654,66609.5781,53682.4297,47794.5781,42623.2344,3516.2869,1785.9938,3298.3796,33138.1602,41234.0703,44600.7383,91.739410,NaN,NaN,NaN
3041.5581,2776.6230,2803.0874,2693.7874,52026.6133,51129.9727,66030.5391,41931.8281,3086.1499,3063.4407,3334.8579,3414.5864,66557.6797,53699.4844,47774.6406,42945.2773,3460.2734,1839.1461,3351.6663,33066.2773,41415.8594,44575.2539,91.743408,NaN,NaN,NaN
-1541.8679,-1722.8276,-1688.8754,-1651.8162,52017.4922,51361.6914,65891.6641,43455.8789,39.8085,3458.9099,-995.0773,2220.3774,66320.4844,53724.8086,47650.0078,44600.6484,2035.7744,4111.4468,3616.7803,32641.9727,42359.7070,44427.7109,91.747406,NaN,NaN,NaN
-3178.7756,-3224.3062,-3181.4131,-3307.4099,52046.0117,51428.0781,65830.2188,44117.8281,-2274.7593,3600.8882,-2963.1260,861.5032,66235.6563,53726.9961,47601.3008,45286.8242,609.3756,4716.0840,3727.1086,32454.3750,42754.1484,44364.6797,91.751404,NaN,NaN,NaN
101.2087,-203.5350,282.4590,-322.3345,52065.1445,51238.1758,65913.1016,43081.9336,1407.3329,3284.9463,985.6225,2910.8228,66398.8906,53694.3633,47679.3555,44132.1992,2953.8276,3878.6758,3538.1470,32735.4922,42108.0234,44460.7266,91.755402,NaN,NaN,NaN
3708.4895,3445.8342,3556.6318,3216.8853,52041.7422,51040.1602,66036.5703,41656.0508,3250.1448,2931.0513,3874.9878,3423.3484,66600.5547,53674.2930,47785.7695,42615.5234,3512.5989,1862.8167,3293.3284,33132.5039,41229.3555,44595.1719,91.759399,NaN,NaN,NaN
3034.8975,2785.4297,2809.6365,2711.8252,52023.9727,51126.7070,66027.6328,41929.1445,3070.3250,3058.4785,3325.6936,3401.3767,66554.7734,53697.0703,47772.0000,42942.5703,3442.9063,1928.3296,3349.9453,33064.3984,41414.2266,44573.5781,91.763397,NaN,NaN,NaN
-1554.3179,-1715.1610,-1683.9357,-1633.7783,52023.0781,51366.1172,65896.4531,43461.4922,-12.6511,3470.8235,-1014.1880,2173.1035,66324.5078,53728.9883,47654.5664,44607.0156,1948.9155,4117.4819,3617.4731,32642.3086,42360.8672,44428.3359,91.767395,NaN,NaN,NaN
-3166.0127,-3214.6501,-3168.1362,-3299.2961,52042.5938,51424.5000,65826.9609,44115.6133,-2313.3384,3593.4004,-2943.7917,845.6559,66232.5078,53724.3594,47598.1055,45284.4766,632.8449,4716.5308,3727.3320,32453.6816,42754.8164,44364.5898,91.771393,NaN,NaN,NaN
166.7216,-160.0161,347.3237,-312.0527,52064.5664,51237.9297,65912.5859,43082.8984,1431.8080,3282.5994,1044.9216,2894.1262,66398.1094,53694.2305,47678.9297,44133.2500,2949.6702,3871.8137,3539.8679,32735.3809,42109.7461,44461.5313,91.775391,NaN,NaN,NaN
3726.7732,3459.0442,3574.8931,3217.9358,52050.3477,51048.1641,66044.5547,41665.4141,3264.4946,2947.0774,3888.1753,3431.8643,66607.2813,53681.2422,47792.9453,42625.4219,3517.4492,1815.6545,3297.4187,33134.6953,41233.4023,44598.4570,91.779388,NaN,NaN,NaN
3045.6040,2773.0466,2806.0378,2691.1277,52023.3477,51126.0391,66027.4531,41928.5859,3086.9771,3054.7234,3340.6692,3404.7070,66554.0156,53696.5977,47771.1094,42941.4102,3456.3396,1944.2217,3352.4934,33065.3594,41416.0820,44575.5898,91.783386,NaN,NaN,NaN
-1537.2412,-1730.4720,-1683.4216,-1650.1622,52026.6797,51370.2969,65900.4531,43464.6211,-26.5315,3473.3938,-985.7566,2092.8608,66328.0625,53732.7188,47658.3672,44610.0352,1871.1538,4123.5840,3611.6619,32645.7051,42364.7578,44432.7617,91.787384,NaN,NaN,NaN
-3172.8523,-3223.3225,-3173.7241,-3305.7334,52054.2813,51435.7227,65838.0469,44127.7734,-2309.0916,3615.8193,-2961.1367,841.4985,66242.3672,53734.3516,47608.6328,45297.6172,561.0287,4721.7163,3716.9385,32457.1680,42760.0273,44369.2852,91.791382,NaN,NaN,NaN
178.2552,-153.6012,360.3772,-295.1995,52064.2734,51237.7500,65912.6094,43084.7969,1469.7389,3280.6326,1031.3094,2919.3835,66398.0469,53694.5430,47678.7500,44135.1055,2970.9043,3882.0732,3542.1479,32735.8711,42113.3008,44463.8320,91.795380,NaN,NaN,NaN
3730.2603,3461.9946,3576.3684,3222.5178,52050.8203,51049.3477,66045.3594,41667.0938,3267.3555,2945.0435,3888.8904,3431.4622,66608.3750,53682.3164,47794.1523,42627.2578,3519.0361,1731.7908,3299.6763,33135.3203,41236.4844,44600.8477,91.799377,NaN,NaN,NaN
-1501.2549,-1658.3876,-1620.9932,-1575.8873,52017.9609,51360.7969,65892.2734,43455.7891,42.2001,3461.1003,-973.7314,2224.4231,66319.2578,53723.8906,47649.2227,44600.1328,2058.2603,4122.5332,3616.3779,32638.1953,42358.4336,44426.5938,91.803375,NaN,NaN,NaN
-3147.8630,-3202.6472,-3151.9758,-3281.5042,52043.9805,51425.9531,65828.3672,44118.2734,-2378.8066,3598.6531,-2960.5779,837.3410,66232.4219,53724.6055,47598.6641,45287.1133,621.3561,4714.6533,3726.8403,32449.3906,42754.3477,44363.1367,91.807373,NaN,NaN,NaN
248.4396,-97.0960,414.8707,-225.4397,52069.0352,51242.0000,65916.4297,43090.3828,1370.5195,3295.5857,1020.9382,2806.2615,66400.6797,53697.0703,47682.0352,44141.5430,2829.9097,3880.7322,3540.4714,32731.2012,42111.4883,44460.7031,91.811371,NaN,NaN,NaN
3734.0601,3466.2190,3580.4365,3228.7095,52047.3086,51044.8555,66041.8672,41664.8555,3266.4614,2939.8801,3887.7952,3426.6787,66604.3047,53678.6055,47789.8828,42624.3047,3516.3315,1869.0304,3298.4021,33131.8320,41235.6797,44598.9492,91.815369,NaN,NaN,NaN
2994.4854,2722.2188,2749.7786,2630.8672,52024.1094,51126.0391,66028.3047,41928.6094,3073.2529,3057.3608,3310.4944,3413.0442,66553.5234,53695.9961,47771.2188,42941.1875,3466.1519,1973.8378,3351.0181,33061.3125,41414.1172,44574.0469,91.819366,NaN,NaN,NaN
-1623.1389,-1805.5962,-1775.2202,-1748.4427,52028.2227,51370.4297,65901.5938,43465.2891,-8.2254,3481.9771,-1020.2230,2175.4504,66327.1875,53731.8242,47658.5000,44610.9727,1975.9612,4124.2544,3609.6726,32638.4414,42359.7266,44427.8672,91.823364,NaN,NaN,NaN
-3169.2983,-3218.0698,-3167.2644,-3302.4924,52048.9648,51429.9297,65833.0625,44123.8633,-2359.3606,3606.2751,-2949.3572,848.2040,66236.3516,53728.8984,47603.0430,45292.9023,628.3075,4719.4141,3718.4585,32451.5801,42758.4180,44366.7344,91.827362,NaN,NaN,NaN
184.6031,-147.7227,382.0583,-293.1208,52067.2031,51240.2305,65915.2500,43090.2266,1420.4086,3283.9854,1029.7672,2887.4429,66399.5000,53696.7578,47680.9414,44140.5820,2955.4370,3891.6396,3545.7241,32734.9785,42117.5898,44466.1563,91.831360,NaN,NaN,NaN
3737.4126,3467.7166,3586.2031,3228.5083,52056.9414,51054.3125,66050.8125,41674.8711,3271.9153,2957.1133,3892.9810,3437.1616,66612.1719,53686.7188,47798.9375,42635.3711,3521.9194,1821.0636,3302.2690,33133.8672,41239.5469,44602.3242,91.835358,NaN,NaN,NaN
3055.4387,2783.7756,2816.6104,2703.1975,52031.1055,51132.4063,66035.0547,41935.5156,3104.6125,3067.8887,3355.5107,3418.2522,66560.1172,53702.6133,47777.9688,42948.4492,3469.7283,1918.7184,3356.3379,33064.9570,41419.1445,44579.2773,91.839355,NaN,NaN,NaN
-1528.1664,-1716.7034,-1672.0669,-1624.6141,52023.1250,51365.4688,65897.6797,43460.7305,76.4430,3464.5427,-947.1328,2214.1638,66323.8828,53728.6953,47654.3633,44604.5586,2054.3040,4132.0552,3621.0496,32641.6602,42364.1094,44432.7852,91.843353,NaN,NaN,NaN
-3154.0544,-3207.7434,-3159.4636,-3286.0862,52051.7109,51432.8164,65835.6328,44127.3281,-2381.4888,3611.6172,-2968.9150,829.3838,66238.0078,53730.4180,47605.0352,45296.0547,584.3640,4718.8779,3721.9900,32449.8359,42758.6406,44366.4453,91.847351,NaN,NaN,NaN
259.8390,-84.2884,424.1243,-211.0899,52070.7109,51243.3633,65918.2656,43094.9648,1369.2902,3294.8481,1007.6837,2827.2498,66401.3047,53698.3438,47683.1523,44145.1641,2855.1223,3889.5164,3544.0479,32731.7148,42116.9219,44464.4141,91.851349,NaN,NaN,NaN
3737.7480,3468.6777,3584.2361,3234.3643,52048.6953,51046.1523,66043.4766,41668.0977,3267.2886,2939.2319,3887.5493,3427.8857,66605.0469,53679.7227,47791.1797,42626.9414,3520.5784,1882.1957,3301.8889,33131.5664,41239.3008,44601.6992,91.855347,NaN,NaN,NaN
3005.5049,2734.5347,2765.4248,2641.3057,52029.6289,51130.3945,66033.6016,41933.8398,3069.9226,3067.1733,3304.5042,3419.7720,66557.9531,53700.2656,47776.0234,42946.4844,3468.2083,1835.6370,3353.0298,33060.6875,41416.1953,44576.2383,91.859344,NaN,NaN,NaN
3005.5049,2734.5347,2765.4248,2641.3057,52029.6289,51130.3945,66033.6016,41933.8398,3069.9226,3067.1733,3304.5042,3419.7720,66557.9531,53700.2656,47776.0234,42946.4844,3468.2083,1835.6370,3353.0298,33060.6875,41416.1953,44576.2383,91.863342,NaN,NaN,NaN
-1605.3469,-1787.8489,-1753.2037,-1738.2280,52027.2578,51368.4883,65901.1172,43463.9727,18.3955,3475.5398,-1058.9362,2272.6807,66326.4297,53730.9766,47657.4492,44608.4688,2094.8948,4101.2319,3620.1108,32638.4629,42362.0742,44430.8203,91.867340,NaN,NaN,NaN
-3172.9866,-3224.4626,-3174.5957,-3310.1367,52046.3242,51427.2734,65830.9375,44122.8320,-2310.0303,3597.3342,-2954.4312,910.0065,66233.6016,53726.5508,47600.4727,45290.8672,747.9117,4720.2188,3732.4729,32449.7695,42760.4297,44367.9883,91.871338,NaN,NaN,NaN
107.0425,-250.0266,295.2442,-396.9446,52070.7109,51243.2930,65918.2656,43096.8438,1413.8148,3291.7412,1012.2657,2903.9385,66400.5469,53698.3203,47683.0859,44146.8828,2977.3865,3884.5989,3546.3948,32730.9316,42119.1563,44465.3984,91.875336,NaN,NaN,NaN
3714.0327,3438.4358,3565.0137,3201.6191,52053.2109,51049.9063,66047.3438,41673.7305,3263.6675,2949.4915,3886.7671,3433.2725,66607.7031,53682.6953,47794.7109,42632.9336,3521.8079,1859.6204,3302.3359,33129.4844,41240.2617,44601.4063,91.879333,NaN,NaN,NaN
3044.7322,2769.6938,2805.1663,2684.4668,52025.0234,51125.8828,66029.7578,41929.0977,3084.2278,3055.1033,3339.9763,3403.7905,66554.3984,53696.9141,47772.1797,42940.6719,3457.7029,1933.4481,3354.8179,33060.7109,41417.0898,44577.7813,91.883331,NaN,NaN,NaN
-1539.4987,-1732.4166,-1687.4225,-1658.3429,52024.1094,51365.3789,65898.3281,43460.5508,19.8707,3469.5493,-983.0521,2178.9375,66323.7891,53728.3633,47654.7656,44604.6016,1986.7124,4118.3760,3619.2615,32636.7422,42361.2500,44430.3711,91.887329,NaN,NaN,NaN
-3173.7241,-3223.5461,-3176.7639,-3306.7393,52049.7227,51429.8633,65833.8438,44126.5898,-2289.8691,3606.5879,-2962.8577,886.3807,66235.8594,53728.6055,47603.0898,45295.1367,673.6816,4719.5034,3724.9629,32447.2891,42759.8906,44366.8242,91.891327,NaN,NaN,NaN
130.0424,-210.3076,311.5386,-347.9943,52062.1055,51234.7773,65910.0391,43090.0938,1415.7817,3278.5984,991.9704,2900.0940,66392.7734,53690.7656,47674.8828,44139.7539,2970.2339,3879.0110,3540.8291,32724.6523,42115.7578,44460.8359,91.895325,NaN,NaN,NaN
3716.6033,3444.6943,3565.4607,3209.5093,52048.4063,51044.9688,66042.4922,41669.9102,3260.6724,2943.1436,3880.4639,3427.9529,66602.6953,53677.7578,47789.7695,42628.7773,3518.9243,1795.1580,3298.6926,33123.8086,41236.9102,44597.2734,91.899323,NaN,NaN,NaN
3050.2083,2772.3762,2810.9329,2688.4900,52025.7852,51125.2773,66029.9766,41928.9219,3092.4978,3062.2336,3345.8772,3408.0820,66553.2344,53695.5039,47771.6875,42940.5156,3461.2568,1848.8245,3350.7947,33054.9414,41412.3281,44573.1992,91.903320,NaN,NaN,NaN
-1524.8583,-1723.2524,-1670.5470,-1643.1213,52017.9844,51358.8984,65892.7422,43454.0469,26.7550,3459.2229,-965.5283,2172.6118,66317.4219,53722.2578,47648.6875,44597.0039,2035.5732,4095.7559,3617.2944,32632.2051,42357.5391,44427.1094,91.907318,NaN,NaN,NaN
-3178.8650,-3231.3245,-3176.5403,-3315.5459,52045.8789,51426.2656,65830.0859,44123.7266,-2359.6511,3601.8940,-2943.5012,780.5005,66231.5469,53724.7852,47599.1328,45291.7422,598.4903,4717.1567,3730.0813,32443.2656,42757.9688,44364.3672,91.911316,NaN,NaN,NaN
101.6557,-266.1422,305.1013,-426.1136,52067.9180,51239.6523,65915.0234,43097.0000,1414.5525,3292.0095,1042.0160,2876.9824,66396.6172,53694.8320,47679.4883,44147.0195,2925.3516,3885.5154,3543.5562,32723.7578,42117.4141,44461.3750,91.915314,NaN,NaN,NaN
3707.7295,3427.9529,3560.4316,3186.1963,52048.0703,51044.5000,66042.4063,41670.6445,3260.1807,2939.5002,3882.1179,3428.3774,66602.3203,53677.7344,47789.6133,42628.9766,3521.8972,1856.3347,3301.0620,33124.6797,41239.7930,44599.6406,91.919312,NaN,NaN,NaN
3048.1968,2754.0479,2798.6394,2671.3015,52026.7461,51126.5508,66031.1406,41929.9258,3105.4172,3061.0488,3368.3630,3404.7517,66554.5781,53696.8672,47773.1406,42941.4531,3456.4736,1945.0710,3352.5603,33055.6797,41414.4492,44575.3242,91.923309,NaN,NaN,NaN
-1499.4220,-1717.7091,-1652.0397,-1623.4966,52025.9180,51365.6914,65900.1172,43461.0430,84.6684,3475.9419,-903.9269,2189.9343,66324.0625,53728.3164,47655.4375,44604.6484,2007.3207,4115.6489,3618.7473,32632.2949,42358.6328,44428.2461,91.927307,NaN,NaN,NaN
-3160.2908,-3214.9854,-3158.2791,-3292.7917,52042.5938,51422.6211,65827.3125,44121.3125,-2308.7786,3595.9709,-2940.9978,862.5761,66228.3047,53721.6094,47595.6680,45288.5234,704.5046,4716.7544,3729.1201,32440.7168,42757.0742,44362.9805,91.931305,NaN,NaN,NaN
156.7751,-208.8547,352.2411,-335.1197,52067.2695,51239.7617,65914.6406,43098.4531,1431.7186,3289.1484,1036.1375,2881.7656,66395.7188,53694.2969,47678.8633,44148.0234,2959.3037,3884.6882,3544.8076,32722.5059,42119.1328,44461.7070,91.935303,NaN,NaN,NaN
3726.0581,3449.0752,3574.8931,3212.7056,52054.5508,51050.0195,66047.8594,41677.5313,3269.1213,2955.8169,3889.3823,3433.6973,66606.5859,53681.8711,47794.2422,42636.3750,3521.4277,1830.2278,3300.3914,33121.9297,41239.4805,44598.4805,91.939301,NaN,NaN,NaN
3047.4590,2772.9126,2811.7153,2694.2568,52022.3203,51120.9648,66026.8281,41924.8516,3092.2966,3053.2258,3347.3525,3405.1987,66550.0391,53692.4180,47768.2695,42935.4883,3464.0957,1954.5706,3350.7051,33052.7070,41412.2383,44573.6914,91.943298,NaN,NaN,NaN
-1536.0342,-1730.7179,-1677.2078,-1640.7744,52019.7266,51359.4805,65894.1250,43455.2109,25.5033,3463.4697,-948.3845,2117.9172,66318.1406,53722.8633,47649.7617,44598.0313,1952.6483,4114.3750,3603.6599,32629.0313,42356.6875,44426.2813,91.947296,NaN,NaN,NaN
-3175.9817,-3226.4519,-3167.9351,-3308.5273,52050.0820,51429.1719,65833.6406,44128.8477,-2360.1877,3613.3159,-2934.0911,772.5657,66233.3828,53726.9531,47602.0156,45297.0586,537.4700,4716.9780,3700.7559,32439.0625,42757.3438,44362.6016,91.951294,NaN,NaN,NaN
152.6848,-193.7673,375.1964,-341.4229,52065.5469,51237.0156,65912.8594,43097.8281,1448.9071,3285.8850,1069.8215,2884.8501,66393.3750,53692.4648,47676.8047,44146.8828,2939.9473,3891.5728,3544.4055,32721.1426,42119.9844,44461.7305,91.955292,NaN,NaN,NaN
3720.7161,3446.3706,3574.4014,3207.7659,52049.9023,51045.7734,66043.7734,41674.6914,3265.8804,2943.7917,3885.6272,3429.1821,66602.2500,53678.2500,47790.5547,42632.5977,3522.7241,1779.5787,3301.5313,33120.9688,41240.8672,44598.8828,91.959290,NaN,NaN,NaN
3058.3667,2764.9778,2810.2400,2680.8235,52033.2734,51131.6719,66036.9766,41935.4258,3116.4812,3074.3481,3373.8616,3417.6709,66558.9141,53701.1133,47778.3945,42946.9297,3469.3035,1815.1627,3353.3428,33053.9375,41414.5195,44575.7461,91.963287,NaN,NaN,NaN
-1498.5950,-1717.1504,-1650.2739,-1625.8658,52023.5938,51362.9648,65898.1016,43458.3594,108.2495,3468.1636,-902.1611,2231.7100,66321.8516,53726.1914,47653.4258,44600.9375,2100.0803,4120.5889,3619.3955,32630.6172,42358.6094,44428.8516,91.967285,NaN,NaN,NaN
-3156.2002,-3202.2227,-3167.3984,-3285.9521,52044.7617,51424.4336,65829.2188,44124.9570,-2352.6775,3597.4238,-2967.6633,901.7811,66229.9141,53723.4883,47597.7266,45292.1875,770.2188,4718.3862,3731.5342,32440.1133,42760.3164,44365.1055,91.971283,NaN,NaN,NaN
195.8907,-121.5264,341.8699,-284.1801,52073.2578,51244.8164,65919.8984,43107.1914,1346.7373,3301.3079,943.6683,2877.9658,66399.6797,53698.5664,47683.5547,44157.0078,2956.6663,3893.5173,3547.4675,32720.9414,42122.7773,44463.0273,91.975281,NaN,NaN,NaN
3731.4448,3462.7097,3577.5308,3221.0427,52052.3164,51047.4492,66045.8672,41678.3125,3261.7900,2949.6702,3880.1956,3430.9927,66603.7500,53679.5898,47791.8945,42636.1953,3522.6572,1903.4298,3302.3137,33119.4961,41241.6055,44598.6133,91.979279,NaN,NaN,NaN
-1528.9487,-1732.8190,-1673.6315,-1660.4886,52027.9961,51366.7422,65902.2422,43462.1836,51.7219,3475.9868,-1000.2629,2188.1462,66325.0859,53729.5469,47657.1133,44605.0508,1980.6550,4120.2759,3608.8901,32631.5781,42360.3320,44430.8203,91.983276,NaN,NaN,NaN
-3173.9700,-3224.3955,-3175.8699,-3306.8286,52051.0430,51429.8438,65834.8281,44131.1484,-2347.9612,3610.1865,-2963.5505,830.2332,66234.2734,53728.2031,47602.9102,45299.0508,632.3755,4719.7046,3704.3992,32440.3379,42761.7930,44366.3320,91.987274,NaN,NaN,NaN
146.9851,-192.4485,333.6668,-326.6707,52065.6133,51237.4609,65912.7891,43102.2969,1408.2269,3283.7170,1013.4504,2877.2952,66392.5938,53692.6211,47676.5391,44151.2422,2963.6848,3882.9673,3546.3723,32719.5781,42124.1172,44463.1406,91.991272,NaN,NaN,NaN
3723.2642,3451.8916,3574.1780,3217.8911,52055.4453,51050.7344,66048.6406,41682.9180,3270.0601,2954.3193,3888.7117,3433.9653,66605.6484,53682.2266,47794.6875,42641.1797,3524.5793,1763.9773,3304.2358,33120.0547,41244.1289,44600.3125,91.995270,NaN,NaN,NaN
3062.9265,2785.0049,2825.6179,2701.2529,52031.7539,51129.1875,66035.8594,41933.8398,3101.6174,3068.3132,3355.1980,3418.4534,66557.1250,53699.7734,47776.6055,42944.7188,3475.8303,1800.1423,3355.3767,33053.9805,41415.8359,44577.6016,91.999268,NaN,NaN,NaN
-1514.0400,-1716.9939,-1658.4099,-1635.3207,52019.1016,51357.7148,65893.8984,43453.7109,75.5265,3457.9712,-950.4409,2228.4688,66317.2422,53722.2148,47648.9102,44595.6406,2106.4507,4113.6821,3618.3450,32628.2715,42357.9609,44428.4727,92.003265,NaN,NaN,NaN
-3177.8591,-3219.9475,-3187.2915,-3302.1572,52046.8828,51425.6406,65830.6719,44128.1328,-2293.7805,3603.0564,-2970.1221,849.7686,66230.0938,53724.2695,47598.7539,45295.8750,684.9915,4716.9556,3729.3660,32436.4922,42759.6445,44363.3828,92.007263,NaN,NaN,NaN
112.5187,-171.6390,266.8575,-304.7884,52069.1016,51240.2109,65915.5391,43106.8125,1378.5215,3293.0154,943.3330,2892.2485,66394.8047,53694.7891,47678.8164,44156.2500,2969.7869,3894.8584,3546.5288,32717.5430,42124.2539,44462.0000,92.011261,NaN,NaN,NaN
3713.5857,3453.7690,3560.6328,3221.1099,52048.2266,51043.3594,66042.0703,41677.3086,3254.8608,2939.6118,3872.9536,3427.7070,66599.6797,53676.4609,47787.8711,42634.7422,3524.2441,1901.0382,3303.0288,33117.7969,41243.8398,44598.9688,92.015259,NaN,NaN,NaN
3051.7507,2773.8738,2813.1011,2687.8643,52026.7227,51123.8711,66031.1641,41928.9883,3083.4231,3059.7524,3341.3398,3406.2493,66552.6328,53695.1914,47771.6211,42939.2422,3456.0266,1891.1587,3352.4709,33050.5391,41413.0664,44574.8750,92.019257,NaN,NaN,NaN
-1526.4006,-1729.8685,-1673.3856,-1654.6326,52024.4219,51361.8047,65898.6172,43458.4492,44.5247,3469.0129,-981.2415,2212.6885,66321.4453,53726.1250,47653.2227,44600.7383,2046.8833,4099.5332,3618.7473,32628.3828,42358.5898,44429.2305,92.023254,NaN,NaN,NaN
-3174.9980,-3225.4460,-3177.5239,-3309.5332,52045.5430,51424.2773,65829.5938,44128.3320,-2347.9836,3597.4685,-2963.5505,822.4771,66229.0469,53723.7813,47597.6563,45295.5859,699.9001,4719.5933,3732.4729,32437.5664,42762.7070,44365.5508,92.027252,NaN,NaN,NaN
118.0396,-236.1238,304.6766,-410.0427,52069.4609,51240.5898,65915.8047,43108.5117,1382.7683,3291.8755,990.3163,2859.6597,66394.8672,53695.3242,47679.3555,44158.2617,2950.1396,3882.6990,3548.1382,32717.4316,42126.1523,44462.9141,92.031250,NaN,NaN,NaN
3714.9492,3437.8323,3567.1594,3189.5269,52053.1641,51047.2031,66046.0703,41682.6055,3264.7627,2950.6760,3883.2356,3431.7302,66603.1016,53680.1250,47791.9609,42640.9336,3524.6240,1820.9519,3303.1853,33117.0156,41244.5781,44599.1719,92.035248,NaN,NaN,NaN
3066.3240,2789.4753,2828.0320,2700.6719,52021.9844,51118.7500,66026.6719,41924.7852,3092.8779,3050.6106,3356.3601,3403.8799,66548.3828,53691.4141,47767.3984,42934.7031,3464.8779,1918.4054,3351.2417,33048.5742,41412.1484,44573.7148,92.039246,NaN,NaN,NaN
-1496.8739,-1699.0007,-1643.4567,-1628.4810,52019.5703,51357.2422,65894.2344,43453.6445,9.7901,3461.8828,-937.2533,2160.0950,66316.8438,53721.8359,47648.9336,44595.8633,2005.0408,4107.0435,3616.1099,32624.7617,42355.3906,44426.1016,92.043243,NaN,NaN,NaN
-3173.0981,-3222.4956,-3174.2158,-3305.0852,52044.8281,51422.7109,65828.3672,44127.7305,-2305.3811,3603.2798,-2959.1250,852.9202,66226.7422,53721.6094,47595.8242,45295.5195,679.4706,4714.9438,3727.3320,32431.4629,42757.5000,44359.9844,92.047241,NaN,NaN,NaN
105.9696,-237.0849,298.5970,-389.4568,52062.0156,51233.1680,65908.4531,43103.5938,1425.0354,3281.2583,983.5438,2882.7715,66387.0000,53688.1523,47671.4844,44152.6953,2967.8870,3888.4434,3544.0701,32711.3066,42122.6641,44457.7305,92.051239,NaN,NaN,NaN
3712.3787,3438.3464,3562.3984,3195.3159,52049.1211,51043.7148,66041.9844,41680.4805,3261.6558,2945.1328,3878.6311,3427.6624,66598.6484,53676.1016,47787.7578,42638.7227,3521.8079,1732.7072,3300.2573,33112.2539,41242.2305,44595.3281,92.055237,NaN,NaN,NaN
3067.0168,2791.1963,2827.4285,2704.6279,52030.0977,51125.5469,66033.6250,41931.4688,3098.8682,3067.3521,3357.3438,3414.0947,66554.5313,53697.1367,47774.0820,42942.4141,3469.5046,1844.8906,3352.1580,33048.8867,41412.6641,44574.4297,92.059235,NaN,NaN,NaN
-1510.2402,-1711.4954,-1655.3478,-1633.7113,52019.5703,51356.2813,65894.1016,43453.1523,59.2545,3458.7983,-939.1755,2211.7273,66316.7500,53721.7227,47648.6406,44595.0156,2102.9414,4104.4731,3618.0544,32625.9688,42356.9336,44427.8438,92.063232,NaN,NaN,NaN
-3171.0195,-3226.5188,-3156.1780,-3299.0728,52044.5391,51422.7578,65828.1641,44128.4648,-2408.7134,3600.9778,-2948.5527,740.9379,66226.4297,53721.5430,47595.8711,45296.2344,599.5855,4715.5024,3729.3438,32431.5078,42758.8633,44360.8594,92.067230,NaN,NaN,NaN
149.8684,-224.0315,389.5685,-347.2120,52068.2305,51238.5547,65913.5703,43110.8828,1366.7644,3297.6199,1042.4182,2760.3958,66391.2734,53692.4883,47676.4922,44161.2578,2810.4858,3891.2151,3544.0701,32708.9609,42122.5977,44456.4336,92.071228,NaN,NaN,NaN
3715.5303,3436.7595,3570.9370,3194.0864,52048.1133,51041.9063,66041.0000,41680.7031,3265.7014,2940.8635,3883.6826,3425.9636,66597.8281,53675.5430,47786.6406,42638.5898,3523.5288,1885.5483,3302.7161,33113.0352,41244.7344,44597.1602,92.075226,NaN,NaN,NaN
3015.5186,2730.2654,2764.6201,2636.0977,52027.1016,51122.9063,66031.2734,41928.5625,3082.6184,3057.3386,3337.9871,3411.1221,66552.5156,53695.2148,47771.8906,42938.9531,3472.5894,1953.3412,3353.4321,33049.3789,41413.8242,44575.8828,92.079224,NaN,NaN,NaN
-1591.6901,-1797.5272,-1750.5662,-1717.1281,52026.9023,51362.9648,65900.6719,43459.1445,7.1526,3474.6008,-941.5225,2185.8665,66322.5625,53726.9766,47654.9922,44601.8086,2044.2010,4111.4468,3617.5850,32625.1191,42356.4648,44427.7109,92.083221,NaN,NaN,NaN
-3177.2781,-3225.7144,-3179.5579,-3304.7500,52046.2578,51424.0078,65830.0234,44131.1914,-2381.6453,3600.8213,-2958.0298,848.4275,66228.3047,53723.5781,47597.2773,45298.6914,730.6338,4719.9731,3733.2329,32434.1465,42763.4219,44364.6563,92.087219,NaN,NaN,NaN
108.5848,-231.2511,296.3394,-379.3315,52068.0742,51239.2266,65913.8594,43112.8242,1376.0404,3290.1321,976.8159,2862.0513,66391.9844,53693.5586,47677.0273,44162.6406,2962.2988,3899.8206,3548.7864,32712.4707,42128.6094,44461.1719,92.091217,NaN,NaN,NaN
3723.0852,3449.1646,3572.2781,3207.1177,52059.4688,51053.0156,66051.2578,41692.0820,3270.5295,2962.7683,3888.5552,3437.5640,66607.0313,53684.5078,47796.6563,42650.9492,3528.5581,1807.7196,3305.4207,33114.3555,41247.6602,44599.5313,92.095215,NaN,NaN,NaN
3078.0586,2801.7017,2839.1409,2712.1829,52029.0703,51123.9375,66033.1719,41930.3750,3105.0149,3061.3171,3363.9822,3418.3191,66553.6563,53696.3086,47772.9414,42940.3164,3480.0100,1908.8837,3354.7507,33048.8633,41414.3594,44576.4414,92.099213,NaN,NaN,NaN
-1489.0731,-1692.6082,-1633.7783,-1622.8931,52021.6289,51357.5586,65896.3828,43454.3828,87.1047,3459.9158,-925.4069,2235.9790,66317.9375,53722.8633,47650.0078,44595.4375,2121.4263,4116.2524,3616.3110,32625.5664,42357.7617,44429.2969,92.103210,NaN,NaN,NaN
-3167.4434,-3222.0933,-3154.0322,-3292.4565,52051.6016,51428.6367,65834.4688,44136.3789,-2396.4421,3613.3606,-2948.5750,794.0904,66231.6797,53726.8398,47601.4570,45304.5273,615.3658,4718.9448,3717.7432,32431.5977,42762.1250,44363.1602,92.107208,NaN,NaN,NaN
176.6682,-175.7294,411.5179,-268.8468,52069.8164,51239.7852,65915.0000,43115.9766,1394.2571,3295.4517,1057.0139,2789.1846,66392.4766,53694.1875,47677.8320,44166.0859,2845.1982,3901.0945,3547.9370,32710.3691,42129.3281,44460.6563,92.111206,NaN,NaN,NaN
3720.8723,3449.0752,3576.4355,3216.9746,52050.4180,51043.7617,66043.1641,41685.3555,3270.0154,2941.9365,3888.1753,3427.9082,66599.0313,53676.9297,47788.2305,42642.6797,3527.6641,1879.3123,3306.0688,33112.6328,41248.8672,44599.5742,92.115204,NaN,NaN,NaN
3031.4106,2746.8953,2782.0769,2652.7498,52032.0430,51126.3711,66035.8594,41932.6758,3095.7388,3067.1287,3350.9734,3421.2249,66555.3828,53697.8281,47775.3086,42942.4844,3482.6921,1824.9752,3354.5945,33047.7695,41413.8711,44576.3516,92.119202,NaN,NaN,NaN
-1566.8348,-1772.6274,-1724.6605,-1700.4983,52026.5000,51361.6016,65900.6094,43458.5156,102.7286,3470.5552,-912.9793,2263.4941,66321.4453,53726.2148,47654.0508,44600.1328,2171.8518,4100.0249,3619.8425,32624.8066,42357.8281,44429.5898,92.123199,NaN,NaN,NaN
-3185.3916,-3230.5198,-3188.1633,-3307.6333,52046.4609,51423.9844,65830.2656,44132.5781,-2344.8992,3598.3179,-2960.1755,872.0085,66227.8594,53723.5117,47597.1875,45299.7188,795.2750,4721.4482,3734.6633,32433.0059,42765.4570,44366.0664,92.127197,NaN,NaN,NaN
43.7871,-267.7739,232.6593,-371.0166,52074.2422,51244.5234,65919.2969,43121.8320,1342.4233,3301.1067,946.2387,2872.8025,66396.0078,53697.8516,47681.7227,44171.7617,2976.9841,3908.5154,3551.6025,32711.7539,42133.3516,44463.6094,92.131195,NaN,NaN,NaN
3705.0474,3439.1958,3558.5764,3215.2983,52057.8164,51050.5781,66049.7578,41693.3555,3261.6782,2957.2251,3881.7603,3435.9324,66604.5781,53682.3398,47794.3750,42651.3945,3531.3521,1962.4607,3307.4099,33112.3633,41250.9492,44600.8477,92.135193,NaN,NaN,NaN
3070.1460,2796.1807,2833.7988,2709.2324,52026.2305,51120.3359,66030.8516,41926.8633,3089.7039,3052.5776,3356.7402,3408.7302,66550.9297,53693.2695,47770.1484,42935.6445,3470.2871,1965.8135,3355.5332,33047.4102,41414.4492,44577.2227,92.139191,NaN,NaN,NaN
-1499.1538,-1699.6489,-1644.8201,-1631.0291,52026.2305,51361.0664,65900.8516,43457.4219,71.3915,3468.4094,-943.1989,2226.2114,66321.8281,53726.1250,47654.0977,44598.5234,2076.6111,4112.4976,3618.2778,32624.9844,42358.2969,44430.7734,92.143188,NaN,NaN,NaN
-3182.7766,-3229.6929,-3186.2188,-3311.1204,52052.4258,51429.3047,65835.8125,44138.9492,-2345.0554,3610.2759,-2975.1511,828.6462,66232.8203,53728.0938,47602.3281,45306.4922,690.4006,4723.2363,3723.2192,32433.1406,42767.3359,44367.2734,92.147186,NaN,NaN,NaN
106.6849,-217.5495,290.9079,-357.6502,52067.9609,51238.1328,65913.5938,43117.8086,1372.4641,3287.6956,963.4272,2861.3362,66390.6016,53692.7109,47675.7109,44166.8438,2965.4504,3895.9536,3550.3062,32709.5195,42133.9961,44462.9609,92.151184,NaN,NaN,NaN
3716.1563,3445.6331,3566.8914,3206.6707,52054.8398,51047.4258,66047.0313,41691.0547,3265.6345,2950.8325,3882.1179,3432.1550,66601.8047,53679.7930,47791.5391,42648.5586,3530.2568,1835.9052,3307.0969,33110.5078,41250.7695,44600.2656,92.155182,NaN,NaN,NaN
3075.7117,2809.1672,2844.9299,2721.9729,52031.3711,51124.3164,66035.3906,41931.1797,3097.0129,3063.2395,3360.1152,3416.7993,66554.5781,53696.7773,47774.2383,42940.0234,3480.1665,1828.3055,3355.8013,33046.8516,41414.9648,44578.0273,92.159180,NaN,NaN,NaN
-1498.2598,-1688.1602,-1634.4937,-1620.6802,52020.9102,51355.3438,65896.0000,43452.1914,66.9211,3457.3455,-946.8422,2232.8945,66316.4141,53721.0742,47648.7773,44592.1992,2142.8840,4090.3914,3619.5073,32622.1016,42356.6445,44429.2539,92.163177,NaN,NaN,NaN
-3189.9739,-3239.2146,-3193.3267,-3320.1504,52051.1758,51427.9219,65834.6250,44138.3906,-2315.1489,3607.6384,-2977.2747,822.2759,66230.8984,53726.7305,47601.0117,45305.5547,710.9642,4723.2363,3736.5632,32431.5977,42767.6016,44367.0938,92.167175,NaN,NaN,NaN
46.9387,-301.9050,235.9450,-424.0573,52071.7188,51241.3516,65916.7188,43123.0625,1393.1619,3298.0222,954.6653,2886.1018,66392.4609,53695.1016,47678.5273,44172.3438,2978.3921,3903.7319,3551.1108,32707.1953,42134.2422,44462.0000,92.171173,NaN,NaN,NaN
3697.1125,3421.0237,3551.5579,3190.5996,52051.7109,51044.2969,66044.3281,41689.6680,3259.1077,2943.4116,3876.9324,3429.2715,66598.9453,53677.3555,47788.6094,42646.1445,3530.8604,1899.3842,3307.3652,33109.3906,41251.8867,44600.7148,92.175171,NaN,NaN,NaN
3096.6106,2836.3469,2872.0649,2756.1040,52029.6289,51122.6641,66034.1172,41929.0313,3104.4114,3058.9927,3380.4553,3409.1772,66553.4375,53695.6172,47773.0078,42937.3867,3469.8848,1924.5521,3355.3320,33045.8008,41414.4492,44578.1602,92.179169,NaN,NaN,NaN
-1447.8789,-1629.9338,-1577.9884,-1554.9884,52025.8516,51359.3242,65900.3125,43456.1250,95.7549,3469.6836,-896.0143,2223.4844,66320.3281,53724.6055,47652.8438,44596.5781,2090.0669,4103.3105,3619.2168,32621.1855,42356.3320,44429.2539,92.183167,NaN,NaN,NaN
-3174.0593,-3221.4897,-3171.4441,-3302.5371,52047.5547,51423.8281,65831.1563,44135.6641,-2305.7166,3600.5083,-2957.0464,866.5547,66227.3438,53723.3789,47597.3242,45302.1563,786.6473,4722.6777,3735.4905,32429.2949,42766.9766,44365.9531,92.187164,NaN,NaN,NaN
101.2757,-230.4688,310.4434,-366.3898,52072.6797,51242.5352,65917.4375,43125.3633,1417.1899,3297.5081,990.8528,2875.1719,66393.0391,53695.8828,47679.4883,44174.6445,2981.6780,3899.5747,3553.0554,32707.0156,42136.4805,44463.1602,92.191162,NaN,NaN,NaN
3718.2349,3446.2141,3572.2556,3207.3188,52060.7891,51052.3867,66052.1953,41698.8086,3272.7871,2961.6506,3888.2422,3437.8547,66606.0313,53684.1055,47796.3867,42656.2031,3533.2520,1855.3065,3309.3320,33109.7930,41254.3008,44602.2344,92.195160,NaN,NaN,NaN
3083.3337,2811.5811,2847.3440,2730.3325,52028.9570,51121.4336,66033.4453,41928.2734,3109.5298,3054.9917,3374.1521,3413.6252,66552.8750,53694.9023,47772.3594,42936.0469,3481.5969,1934.0964,3356.6506,33046.0234,41415.8359,44579.4141,92.199158,NaN,NaN,NaN
-1486.1227,-1685.4779,-1626.9387,-1591.8018,52025.9844,51359.6797,65900.5625,43455.8359,81.3156,3466.2861,-907.1232,2162.5313,66320.8203,53725.1875,47653.5391,44596.2891,2033.2487,4105.4116,3612.2876,32622.0117,42357.8516,44431.1094,92.203156,NaN,NaN,NaN
-3181.9495,-3229.6257,-3185.9504,-3307.9688,52054.6641,51430.4219,65837.4844,44143.0859,-2329.6328,3617.9873,-2975.8440,833.9659,66232.4375,53728.4727,47603.1328,45310.3164,671.8264,4722.6553,3720.5371,32427.7988,42767.4023,44365.6172,92.207153,NaN,NaN,NaN
-3181.9495,-3229.6257,-3185.9504,-3307.9688,52054.6641,51430.4219,65837.4844,44143.0859,-2329.6328,3617.9873,-2975.8440,833.9659,66232.4375,53728.4727,47603.1328,45310.3164,671.8264,4722.6553,3720.5371,32427.7988,42767.4023,44365.6172,92.211151,NaN,NaN,NaN
109.7694,-218.3989,292.9867,-352.5317,52068.6758,51238.1992,65913.7969,43123.1953,1425.0577,3290.5791,961.8179,2904.6985,66388.5938,53691.8164,47674.9063,44171.3359,3000.4758,3906.1685,3552.0945,32704.0664,42136.1211,44461.6172,92.215149,NaN,NaN,NaN
3714.7705,3443.8672,3566.3994,3205.5530,52055.6680,51047.6719,66047.5000,41694.8750,3267.9590,2949.8267,3882.2966,3432.5349,66601.2422,53679.5898,47791.6250,42651.3516,3532.6038,1797.7731,3308.4158,33107.4492,41253.9414,44601.1836,92.219147,NaN,NaN,NaN
3128.8865,2873.7412,2907.2466,2792.7610,52035.8203,51127.3555,66039.2344,41934.0391,3130.3394,3070.7048,3407.3445,3423.7061,66557.7031,53699.3477,47777.8125,42942.3945,3485.5532,1851.2161,3355.8013,33044.2148,41414.8984,44578.6094,92.223145,NaN,NaN,NaN
-1391.5525,-1568.3995,-1514.9117,-1486.4357,52024.1289,51356.6172,65898.8672,43453.3086,178.1658,3461.7935,-831.4178,2285.0857,66318.8750,53722.9766,47651.1914,44592.6445,2206.9888,4113.8384,3620.6919,32621.0742,42357.5156,44431.2227,92.227142,NaN,NaN,NaN
-3157.5637,-3204.3906,-3167.3762,-3284.9241,52049.1875,51425.1250,65832.6094,44138.2344,-2375.4092,3603.6152,-2983.8906,845.7676,66227.8359,53723.9805,47598.3516,45304.7266,767.2683,4721.0459,3735.0881,32426.4336,42767.3789,44365.5078,92.231140,NaN,NaN,NaN
190.9063,-127.2932,348.2178,-267.9751,52076.8789,51245.9336,65920.7266,43132.7188,1313.1649,3309.7568,920.7354,2790.8386,66394.8672,53698.0078,47682.0586,44182.5586,2873.7637,3908.3142,3552.3403,32702.1875,42137.3945,44461.2852,92.235138,NaN,NaN,NaN
3725.7004,3457.9490,3575.2954,3218.7629,52054.8203,51045.6602,66046.2031,41695.4102,3266.9084,2950.4524,3880.7991,3429.4727,66599.4531,53677.9570,47789.8398,42651.7969,3529.1392,1935.7280,3306.9182,33103.8945,41253.1172,44599.0391,92.239136,NaN,NaN,NaN
3069.7886,2804.9426,2832.1448,2708.7632,52025.4063,51116.5586,66029.8203,41923.2227,3087.2004,3049.2473,3342.4351,3415.2124,66548.4688,53690.2500,47768.1367,42930.0781,3483.6980,1970.8427,3352.2698,33039.9883,41411.1641,44575.4805,92.243134,NaN,NaN,NaN
-1508.3403,-1694.0164,-1658.1417,-1649.3575,52028.0430,51360.1055,65902.2813,43456.0820,71.9726,3472.3210,-974.2231,2225.7866,66321.1094,53724.8984,47654.3438,44595.9961,2084.7917,4105.9932,3608.7114,32617.2070,42354.3867,44428.4258,92.247131,NaN,NaN,NaN
-3182.6423,-3228.1953,-3187.9397,-3311.5002,52049.1875,51424.6328,65832.1250,44138.6797,-2357.0808,3607.3254,-2977.6099,817.9174,66226.7188,53722.8398,47597.6133,45305.1758,697.0391,4719.1460,3716.5586,32422.0527,42764.8555,44362.3555,92.251129,NaN,NaN,NaN
92.6703,-227.8760,273.9206,-366.5462,52065.5273,51235.0703,65910.1250,43123.3516,1373.7382,3285.6169,945.2552,2862.1855,66384.9219,53688.4648,47671.7539,44171.8945,2976.2017,3906.4365,3549.1887,32698.0977,42135.6953,44458.6016,92.255127,NaN,NaN,NaN
3712.2000,3441.9673,3562.7339,3203.0942,52054.9766,51045.7500,66045.8672,41696.0391,3264.8298,2953.5146,3878.7876,3430.9480,66598.5859,53677.0195,47789.6836,42652.6250,3527.1274,1832.0160,3303.8113,33099.4883,41250.5664,44596.0430,92.259125,NaN,NaN,NaN
3094.3977,2825.9980,2855.4128,2739.5190,52031.0352,51121.3672,66034.8516,41927.8047,3110.2227,3060.5796,3376.0967,3418.1628,66552.7422,53694.0508,47773.0078,42935.0391,3483.4968,1815.7439,3352.7393,33039.3633,41411.3672,44576.0391,92.263123,NaN,NaN,NaN
-1464.3969,-1657.9406,-1611.3595,-1581.6541,52022.3633,51354.3164,65897.5859,43450.0703,133.7975,3455.8030,-897.5119,2263.6282,66316.9766,53720.8516,47649.6250,44588.6211,2188.3699,4104.0034,3618.8813,32618.5469,42356.1758,44430.9297,92.267120,NaN,NaN,NaN
-3171.0642,-3213.1973,-3185.2576,-3295.8540,52053.7031,51428.8594,65836.5703,44143.8906,-2355.1809,3611.6841,-3002.7556,843.0407,66230.3203,53726.4609,47601.6602,45310.2031,734.5007,4722.5435,3730.1484,32424.1992,42768.8086,44365.7305,92.271118,NaN,NaN,NaN
169.3368,-124.4098,307.9623,-272.9595,52075.0469,51243.5625,65918.8906,43134.2617,1297.2728,3303.0959,865.4148,2814.2856,66392.1406,53695.6602,47679.6211,44182.9609,2903.1338,3912.9634,3552.9661,32700.1309,42140.4805,44462.0664,92.275116,NaN,NaN,NaN
3725.4321,3460.9216,3572.7026,3222.1826,52054.9531,51045.4375,66046.6094,41697.2461,3262.1924,2944.8645,3873.6914,3428.8691,66599.3672,53678.0039,47790.0391,42652.4023,3533.4531,1932.1071,3310.9861,33104.6094,41257.5625,44602.5234,92.279114,NaN,NaN,NaN
3093.5483,2827.2498,2856.3516,2736.9041,52034.8359,51124.6055,66038.9609,41931.4453,3101.3716,3062.2112,3362.7305,3420.4873,66556.6328,53697.7383,47776.6523,42937.7891,3483.9216,1841.2025,3358.0813,33043.5664,41416.6875,44581.6250,92.283112,NaN,NaN,NaN
-1465.1121,-1655.8395,-1614.2653,-1598.2167,52027.9961,51358.9648,65902.8203,43455.0078,128.7460,3467.0237,-953.0784,2290.5842,66321.3984,53724.7617,47654.3203,44593.5820,2191.9014,4081.7412,3620.8484,32618.7051,42357.3594,44432.3828,92.287109,NaN,NaN,NaN
-3181.5696,-3228.6646,-3187.8281,-3313.5120,52048.0234,51423.4063,65831.6719,44139.0820,-2331.4209,3599.1672,-2982.5942,846.7064,66225.8047,53722.1484,47596.7422,45304.6133,794.1798,4722.0518,3736.0715,32422.8359,42769.5703,44366.2461,92.291107,NaN,NaN,NaN
56.5276,-284.7165,239.8342,-445.4032,52071.8750,51240.7695,65916.1406,43132.8984,1356.5050,3296.6809,924.4905,2854.7646,66389.0625,53692.9805,47676.7852,44180.9688,2971.4185,3903.0615,3553.2344,32697.5391,42140.9063,44461.4180,92.295105,NaN,NaN,NaN
3701.4041,3425.0247,3556.1848,3181.0107,52056.2266,51046.0859,66047.4766,41699.5039,3263.5557,2952.3972,3876.6416,3432.1772,66598.5859,53677.2891,47789.9727,42654.3477,3531.4189,1894.1315,3307.8569,33099.4023,41255.0156,44599.0586,92.299103,NaN,NaN,NaN
3088.0498,2822.8464,2851.0991,2736.8591,52028.2891,51117.8125,66032.9297,41924.7422,3098.2200,3050.3201,3367.4915,3408.1045,66550.2813,53691.4570,47770.2578,42929.8320,3478.1772,1921.1100,3355.3542,33039.3203,41413.4453,44578.6523,92.303101,NaN,NaN,NaN
-1473.4717,-1663.1262,-1620.9708,-1589.2983,52027.4844,51358.2031,65902.4141,43453.7109,75.0125,3464.4756,-923.8423,2210.1182,66320.7266,53723.9570,47653.7852,44591.7070,2101.0862,4099.5557,3620.2673,32617.5410,42357.0469,44432.5391,92.307098,NaN,NaN,NaN
-3186.8223,-3231.9280,-3193.0359,-3314.6294,52054.1250,51428.2539,65837.1719,44145.0508,-2288.1704,3610.7900,-2983.1755,844.3371,66230.4297,53726.3945,47601.6367,45310.3828,740.2227,4723.9067,3730.3049,32422.9922,42771.4492,44367.8984,92.311096,NaN,NaN,NaN
65.3118,-253.1782,245.8915,-398.6880,52072.0977,51240.7695,65916.5469,43134.8203,1392.2230,3292.6353,923.2611,2874.5684,66389.3281,53693.3359,47676.7383,44182.0000,2984.9412,3912.8738,3554.8438,32698.7910,42145.3984,44464.7500,92.315094,NaN,NaN,NaN
3705.2932,3435.0830,3557.4587,3195.3828,52056.0938,51046.1094,66047.2344,41700.6211,3264.3381,2949.8042,3874.3618,3430.9702,66598.6484,53677.1992,47789.9492,42655.1523,3533.0061,1854.0325,3308.9075,33098.3281,41257.2500,44600.1992,92.319092,NaN,NaN,NaN
3095.3364,2830.1108,2857.8491,2743.5872,52031.9531,51120.1367,66036.0781,41926.6406,3108.4792,3060.3784,3377.0356,3412.8430,66552.4531,53692.8203,47772.8047,42931.3516,3480.8372,1871.4668,3353.7898,33036.0117,41411.5430,44577.3789,92.323090,NaN,NaN,NaN
-1463.6592,-1653.0009,-1609.4373,-1572.7357,52021.3125,51351.5234,65897.0547,43445.9336,104.0697,3454.6409,-903.1893,2214.5662,66314.4688,53717.1406,47647.6133,44581.8477,2158.0386,4080.1768,3617.4956,32611.6855,42352.5547,44429.0313,92.327087,NaN,NaN,NaN
-3190.3091,-3237.4712,-3181.8154,-3320.2397,52050.0352,51424.5664,65833.6875,44140.9375,-2398.9902,3606.7891,-2953.1570,726.7446,66225.7109,53721.3438,47597.4336,45304.5273,641.1374,4719.8838,3735.0657,32416.3086,42768.0039,44364.1445,92.331085,NaN,NaN,NaN
47.9445,-295.9594,287.5775,-455.4615,52076.1211,51243.9648,65920.1172,43139.0430,1355.8568,3307.1641,1001.6487,2780.5793,66391.1172,53694.5430,47679.3750,44185.4180,2844.9524,3912.8291,3554.9331,32692.8008,42143.4961,44461.8867,92.335083,NaN,NaN,NaN
3696.3079,3418.1628,3557.3247,3174.5957,52053.4336,51042.9102,66045.6250,41697.8945,3264.0474,2944.8198,3876.6416,3428.5339,66595.9219,53673.9805,47787.1992,42649.8984,3532.3354,1907.4755,3309.0640,33095.1758,41257.3398,44600.4688,92.339081,NaN,NaN,NaN
3068.3579,2782.1438,2820.4771,2704.0247,52031.0820,51119.3984,66036.1484,41924.4063,3117.2637,3056.2881,3386.9822,3408.7749,66551.7813,53691.4141,47772.2461,42926.9922,3476.7913,1916.2596,3354.1250,33033.8438,41411.7891,44578.5625,92.343079,NaN,NaN,NaN
-1483.3511,-1703.4711,-1635.4547,-1581.2740,52031.1484,51360.1055,65906.7344,43453.4883,138.8043,3473.0586,-847.1758,2226.6360,66322.4297,53723.9375,47656.1523,44588.3320,2124.1533,4094.9736,3619.5295,32611.4629,42354.7422,44432.1602,92.347076,NaN,NaN,NaN
-3173.3665,-3221.6016,-3177.4346,-3297.7314,52049.4336,51423.1367,65834.0859,44140.0430,-2313.0925,3602.0281,-2965.8752,863.5373,66224.7734,53719.7578,47596.3398,45300.7930,810.1166,4722.0742,3737.0552,32414.9004,42770.0820,44366.4453,92.351074,NaN,NaN,NaN
90.9939,-239.2531,272.3784,-371.8660,52072.5898,51240.9023,65917.7031,43136.6758,1390.9713,3297.3069,947.0657,2862.5208,66387.4922,53690.5859,47675.7773,44179.9219,2983.0413,3913.6116,3555.8718,32689.2910,42144.4805,44462.3555,92.355072,NaN,NaN,NaN
3709.4954,3436.4912,3563.0691,3201.5745,52060.1836,51048.8789,66051.9063,41704.0156,3270.3059,2960.9355,3881.8721,3433.6748,66599.9063,53677.1328,47792.1836,42654.5703,3531.7544,1869.7904,3308.4158,33090.3711,41256.3555,44599.2148,92.359070,NaN,NaN,NaN
3097.3706,2830.8259,2864.3760,2744.5483,52029.7422,51117.0977,66035.6328,41921.7695,3108.9041,3052.8682,3380.0083,3410.4514,66550.1250,53689.0664,47770.5703,42921.5820,3483.0276,1946.2334,3354.7507,33031.2070,41411.5000,44579.3906,92.363068,NaN,NaN,NaN
-1460.7312,-1651.2128,-1602.7095,-1574.5909,52027.3047,51356.7305,65904.2031,43448.8398,109.2777,3462.3970,-898.1378,2176.5457,66319.3438,53720.3594,47653.0000,44580.8438,2087.0718,4099.1084,3611.5054,32609.3164,42355.1016,44433.6563,92.367065,NaN,NaN,NaN
-3198.1545,-3243.7073,-3188.2527,-3323.9724,52059.9844,51433.3945,65844.2813,44149.2969,-2403.1477,3624.1118,-2962.0083,720.5532,66233.3984,53727.3555,47606.1055,45309.2852,568.2708,4723.2139,3715.9104,32413.8496,42772.2070,44369.0156,92.371063,NaN,NaN,NaN
59.5227,-264.4435,301.5250,-393.5695,52073.4375,51241.2383,65919.0938,43137.7930,1361.5341,3300.7043,1000.2405,2791.1294,66387.5391,53689.9844,47676.3359,44179.1172,2857.3127,3917.8806,3554.8438,32685.8047,42145.2422,44462.8477,92.375061,NaN,NaN,NaN
3698.7219,3425.5835,3560.3870,3192.7900,52054.3516,51043.3594,66047.5234,41699.4336,3265.2544,2945.7139,3876.9324,3427.7964,66594.6953,53671.6094,47786.9766,42646.5234,3532.5591,1901.7981,3310.2261,33088.0898,41258.4336,44600.8711,92.379059,NaN,NaN,NaN
3077.0081,2787.0837,2832.5918,2714.6416,52036.0000,51123.0859,66042.2266,41926.4609,3136.7095,3066.5923,3403.1648,3418.6099,66554.4609,53692.1953,47775.9805,42924.6250,3485.7097,1844.1083,3354.6392,33027.7188,41410.6523,44579.5703,92.383057,NaN,NaN,NaN
-1471.6611,-1695.2904,-1620.0768,-1558.1848,52026.0078,51355.4570,65904.3359,43446.0469,226.6243,3465.3921,-808.7308,2265.3044,66317.5313,53717.5664,47651.5469,44576.7305,2199.8809,4092.1348,3617.8308,32602.7891,42350.6094,44431.4219,92.387054,NaN,NaN,NaN
-3186.9341,-3223.4121,-3201.5295,-3296.0552,52048.4727,51424.4102,65835.9844,44139.7773,-2331.6667,3603.9058,-2986.9976,873.5955,66223.9063,53718.3047,47596.5391,45299.0039,830.4567,4718.9673,3738.2173,32407.8164,42769.9961,44368.5898,92.391052,NaN,NaN,NaN
9.3877,-244.1034,156.7751,-340.0147,52075.8516,51252.4570,65926.7344,43149.6172,1325.4807,3320.3069,835.8211,2870.0979,66390.3984,53696.5117,47682.1914,44200.4180,2972.8267,3915.1313,3560.6104,32680.6855,42146.4688,44466.5352,92.395050,NaN,NaN,NaN
3691.1892,3433.6973,3544.6064,3213.1301,52059.1328,51051.0469,66054.1875,41709.1133,3261.6782,2962.6118,3865.6448,3433.8538,66598.8516,53677.2422,47792.5195,42660.1563,3531.6426,1952.9613,3312.4836,33084.2227,41260.5586,44602.8594,92.399048,NaN,NaN,NaN
3059.8196,2797.8572,2831.0496,2741.4636,52027.5039,51120.9180,66038.8516,41924.5859,3111.5415,3058.0090,3369.3242,3408.0820,66548.3594,53689.0898,47771.1289,42928.1328,3470.2424,1933.5153,3357.7012,33022.8242,41410.5156,44581.6484,92.403046,NaN,NaN,NaN
-1509.1003,-1686.5061,-1643.6132,-1566.9690,52027.2383,51361.8047,65909.3672,43451.6992,159.7703,3476.4114,-920.1989,2211.3699,66318.9219,53721.4766,47655.1484,44588.2422,2058.9084,4088.0891,3611.3936,32599.0566,42350.2305,44433.5469,92.407043,NaN,NaN,NaN
-3193.5054,-3235.8171,-3199.7861,-3311.9248,52053.2305,51428.4102,65840.9922,44144.8711,-2316.4229,3615.9309,-2989.6799,834.5694,66226.2734,53720.8047,47599.9141,45303.2734,699.4308,4717.8271,3709.8977,32403.0547,42768.8984,44367.1172,92.411041,NaN,NaN,NaN
9.8571,-298.2617,202.0821,-390.7755,52066.8438,51243.0703,65918.8203,43141.9258,1389.6749,3301.0842,897.6013,2877.2058,66381.6797,53687.9961,47673.3867,44189.2422,2977.8335,3902.2568,3556.2295,32674.8750,42145.0625,44464.0781,92.415039,NaN,NaN,NaN
3683.6345,3414.2065,3543.4890,3193.1702,52055.1328,51046.8906,66050.9922,41704.7773,3264.9863,2955.6829,3869.5339,3429.8303,66594.8047,53672.8828,47788.6094,42653.6758,3527.4180,1845.3823,3309.2651,33078.7031,41257.7422,44600.4688,92.419037,NaN,NaN,NaN
3085.3452,2813.7939,2848.7073,2733.0596,52032.0000,51119.3086,66040.6641,41921.8594,3116.7717,3059.3279,3384.0986,3414.1394,66551.0625,53688.8867,47772.5586,42917.8281,3481.7981,1797.6614,3354.0579,33021.3477,41409.3750,44580.4180,92.423035,NaN,NaN,NaN
-1471.7953,-1663.5732,-1616.9475,-1575.3062,52022.6563,51353.3320,65903.8672,43443.1836,168.6663,3457.3677,-886.2913,2251.4016,66314.9219,53715.5078,47649.5352,44571.9688,2181.3066,4079.5061,3619.5520,32597.9844,42351.5938,44434.1250,92.427032,NaN,NaN,NaN
-3199.0039,-3238.7007,-3207.5869,-3320.2622,52051.4883,51425.0586,65839.0469,44142.2109,-2278.8496,3607.7502,-2990.1045,829.5403,66224.8203,53718.3477,47597.9492,45296.5703,740.5356,4718.8555,3735.9150,32400.7969,42770.3516,44367.4297,92.431030,NaN,NaN,NaN
-35.5393,-317.5289,142.2912,-433.0427,52074.5547,51242.3125,65921.9766,43142.7305,1351.4535,3302.6489,867.3594,2875.7083,66386.7578,53688.9766,47676.6250,44179.7422,2977.3416,3915.6680,3555.6707,32675.2090,42148.1016,44463.5625,92.435028,NaN,NaN,NaN
3675.4314,3411.8596,3530.9050,3187.4705,52052.2500,51040.7891,66047.2813,41699.2344,3250.7258,2942.6741,3861.3083,3424.4658,66591.5625,53667.8984,47784.6523,42641.7852,3528.2451,1911.9458,3307.8792,33076.5781,41258.1914,44599.7070,92.439026,NaN,NaN,NaN
3091.0002,2821.2595,2857.0894,2740.9497,52028.6250,51114.3906,66037.2891,41916.1797,3105.6184,3052.0188,3385.1716,3402.6731,66547.0156,53683.7031,47768.7617,42908.3750,3466.6885,1869.0975,3350.2581,33016.2734,41405.9141,44576.9102,92.443024,NaN,NaN,NaN
-1454.8750,-1646.6976,-1597.4791,-1561.1799,52025.5625,51352.4844,65905.0781,43441.7969,155.9705,3462.1958,-873.3720,2244.1375,66315.6563,53714.2109,47650.1406,44565.6445,2141.1628,4077.3828,3615.5732,32594.0059,42348.7070,44430.6836,92.447021,NaN,NaN,NaN
-3184.3857,-3230.1846,-3192.7454,-3313.1765,52046.6602,51419.6289,65834.3594,44137.6289,-2314.9924,3597.9377,-2969.1387,833.0048,66219.7266,53712.8281,47592.8984,45288.6094,780.2100,4717.9839,3734.3728,32396.6836,42769.1914,44365.3281,92.451019,NaN,NaN,NaN
14.0145,-316.0760,191.8674,-468.0008,52070.3750,51238.1094,65917.6172,43140.0039,1356.6838,3295.5188,920.3107,2852.1047,66381.9766,53684.2148,47672.2461,44174.4219,2963.7517,3905.6096,3553.3462,32670.0020,42146.8516,44460.5000,92.455017,NaN,NaN,NaN
3683.8804,3408.6409,3539.2869,3168.8960,52053.5469,51040.8555,66047.6172,41700.8203,3257.3643,2950.3630,3868.3491,3425.6953,66590.9219,53667.2305,47784.4727,42642.0547,3524.9595,1859.3298,3304.1243,33070.8359,41255.2617,44595.6641,92.459015,NaN,NaN,NaN
3088.1169,2812.7659,2847.0757,2722.5095,52025.0039,51110.4570,66033.9375,41912.6250,3106.7583,3044.5981,3382.9141,3402.4495,66543.6875,53680.5273,47765.3203,42903.1680,3474.4221,1893.7068,3348.9170,33013.9492,41404.9961,44576.0156,92.463013,NaN,NaN,NaN
-1465.2239,-1664.2885,-1617.3052,-1590.0360,52026.2773,51353.4453,65905.9063,43442.1992,84.4896,3461.3687,-881.3069,2140.7605,66316.4844,53714.9961,47651.2344,44564.9727,2029.0690,4083.5964,3611.9524,32593.8945,42349.6914,44432.0469,92.467010,NaN,NaN,NaN
-3196.7910,-3244.1321,-3204.2566,-3325.0229,52054.6172,51426.4883,65841.3047,44145.3867,-2358.8018,3615.7522,-2990.8645,753.7902,66225.9375,53718.8164,47599.6914,45296.4336,615.2988,4718.5425,3727.4438,32395.9688,42770.4180,44366.2227,92.471008,NaN,NaN,NaN
15.8250,-323.7426,196.2260,-454.8803,52070.8672,51238.3086,65918.1953,43142.8672,1362.9646,3294.3118,898.8083,2840.8843,66382.4219,53685.0000,47672.7148,44176.3672,2943.9036,3917.6572,3555.7378,32670.4941,42150.6719,44462.8477,92.475006,NaN,NaN,NaN
3690.7200,3414.4524,3545.0088,3180.4072,52059.2461,51047.3359,66053.5859,41708.8242,3264.0923,2954.2522,3872.5737,3430.5679,66596.7500,53673.3984,47790.6641,42649.8555,3531.4414,1800.9917,3311.4778,33076.1758,41263.8203,44602.9727,92.479004,NaN,NaN,NaN
-1457.8478,-1615.2264,-1572.9369,-1498.9526,52024.9570,51355.7891,65907.7109,43445.2852,193.2085,3463.2686,-858.8434,2272.3901,66316.4609,53717.2305,47652.1523,44572.8398,2200.2163,4087.1282,3621.0271,32594.7422,42352.1055,44436.4297,92.483002,NaN,NaN,NaN
-3180.4072,-3230.5422,-3183.5813,-3297.9998,52050.7969,51425.6406,65839.6953,44145.1172,-2374.4480,3608.8455,-2983.5554,795.9009,66223.2578,53717.7461,47597.8164,45298.5352,708.7291,4717.7603,3737.2786,32395.2090,42771.8516,44368.2344,92.487000,NaN,NaN,NaN
58.1592,-284.8506,254.1393,-348.9778,52073.5039,51248.3008,65924.4766,43154.5117,1340.0764,3318.8315,920.0872,2770.6328,66384.0078,53690.6992,47677.6328,44198.2930,2832.1670,3913.8574,3557.1907,32663.5645,42147.5859,44461.2852,92.490997,NaN,NaN,NaN
3684.7744,3412.6418,3542.8630,3191.3821,52051.7109,51042.4180,66047.8828,41707.3477,3265.7461,2949.6926,3870.4727,3424.8235,66588.9922,53668.2578,47783.9805,42651.9102,3524.7805,1938.7455,3308.4604,33068.8008,41259.9766,44598.5000,92.494995,NaN,NaN,NaN
3024.2803,2753.6902,2778.9475,2681.5164,52027.8203,51118.4141,66040.1719,41921.4336,3112.0779,3057.6514,3362.1045,3414.7654,66546.5078,53686.4531,47770.4609,42918.6797,3479.8982,1921.6688,3353.0073,33012.0273,41406.4492,44579.7266,92.498993,NaN,NaN,NaN
-1571.8640,-1755.9530,-1725.9792,-1654.1407,52033.1602,51364.7773,65916.0313,43453.6914,136.1445,3483.2957,-892.4157,2226.7478,66323.0078,53724.5156,47660.2188,44584.2617,2097.7781,4085.6528,3617.4956,32593.0664,42351.0547,44436.4492,92.502991,NaN,NaN,NaN
-3192.5220,-3234.8784,-3198.6240,-3311.6567,52052.5859,51427.1367,65841.6641,44148.5625,-2360.5901,3613.6287,-2971.7983,859.1786,66224.5078,53719.7344,47599.1797,45302.4922,742.1450,4719.6826,3733.1436,32394.4277,42773.2578,44369.0586,92.506989,NaN,NaN,NaN
5.0962,-311.2927,200.0034,-417.2847,52067.2461,51242.2422,65918.9375,43151.3594,1381.8071,3302.4702,909.5372,2861.7607,66378.8438,53686.4531,47672.0430,44194.0703,2958.2756,3919.5125,3557.8164,32662.8496,42150.4492,44462.3789,92.510986,NaN,NaN,NaN
3683.4780,3413.0889,3542.8855,3187.7610,52058.8633,51049.3945,66054.5625,41715.0156,3267.7803,2963.8635,3872.0820,3433.7419,66594.8984,53674.2266,47790.6641,42660.5586,3527.5522,1851.5291,3309.0193,33068.1289,41261.4531,44599.5742,92.514984,NaN,NaN,NaN
3088.0945,2823.3828,2852.0601,2758.6746,52031.8398,51120.7188,66043.5938,41923.7813,3139.0117,3063.0830,3403.8352,3419.3921,66550.1016,53689.5586,47773.6797,42920.2188,3483.3853,1840.3531,3353.8792,33012.7227,41407.9258,44581.5352,92.518982,NaN,NaN,NaN
-1459.5018,-1644.9542,-1601.8824,-1513.3472,52022.6758,51353.6211,65906.3984,43443.1406,239.1860,3458.6641,-824.3547,2278.8496,66314.0938,53715.7773,47650.2070,44571.1211,2196.4387,4088.3127,3617.4731,32590.5859,42350.1406,44435.4453,92.522980,NaN,NaN,NaN
68.0834,-276.0217,249.5125,-359.9078,52074.6680,51247.7891,65924.9922,43159.0273,1310.9298,3313.7131,895.4332,2782.8591,66383.7656,53691.1445,47677.5000,44199.6563,2844.1699,3921.0322,3558.4199,32662.9160,42153.6914,44463.7188,92.526978,NaN,NaN,NaN
3688.9988,3415.5923,3544.8301,3191.8960,52053.7031,51044.0078,66050.1406,41711.5039,3265.1875,2947.6584,3870.6738,3426.4553,66590.4297,53670.2031,47785.8828,42654.5039,3527.4180,1919.6794,3311.0532,33068.1523,41264.5156,44601.6523,92.530975,NaN,NaN,NaN
3047.9731,2782.9709,2808.4519,2696.9614,52034.5898,51121.9688,66045.9375,41924.5156,3111.7651,3063.8652,3365.9490,3425.0918,66552.0234,53690.8555,47775.8242,42918.6328,3488.3918,1782.9762,3353.6108,33012.4297,41408.5508,44582.4063,92.534973,NaN,NaN,NaN
-1533.2626,-1714.4681,-1681.8123,-1638.6957,52028.2891,51357.2656,65911.1328,43446.7383,194.9743,3468.9683,-907.4138,2340.2053,66318.0234,53718.6367,47654.5664,44572.9102,2264.5222,4062.9658,3616.9146,32588.1719,42349.1563,44434.4180,92.538971,NaN,NaN,NaN
-3195.8970,-3240.7346,-3204.6143,-3321.7820,52045.6563,51419.4492,65835.1641,44142.8164,-2322.8826,3597.4014,-2978.3921,864.8113,66217.0859,53712.3125,47592.0273,45293.5508,807.7697,4716.7988,3733.5012,32386.9609,42771.0898,44365.3516,92.543945,NaN,NaN,NaN
-76.6441,-419.4752,107.3331,-537.8276,52071.0703,51243.0039,65921.0625,43155.5391,1326.0396,3304.5488,875.1378,2851.4343,66379.7188,53686.3398,47673.3203,44193.2188,2958.3875,3917.2996,3555.5142,32658.2227,42152.2578,44460.8125,92.547943,NaN,NaN,NaN
3662.6685,3383.8975,3520.1538,3156.9155,52055.4688,51044.4297,66051.4141,41713.4063,3255.1067,2953.8276,3864.3706,3428.9363,66590.5625,53669.6875,47786.3516,42655.0156,3525.8535,1938.9915,3307.9910,33062.8789,41262.5039,44598.8125,92.551941,NaN,NaN,NaN
3077.9021,2807.9824,2837.1963,2728.3208,52025.9180,51112.9375,66038.3125,41915.7773,3108.7700,3046.8555,3383.4951,3403.5671,66544.4063,53682.8750,47767.6875,42907.5898,3469.5046,1890.4882,3350.8616,33007.4453,41405.6680,44580.0391,92.555939,NaN,NaN,NaN
-1478.8361,-1671.2845,-1629.2410,-1575.3733,52026.3438,51355.0977,65909.9063,43443.8086,142.9617,3463.4922,-876.1437,2218.2764,66316.4375,53716.6953,47652.8906,44568.1680,2096.0347,4079.7297,3615.7969,32586.5625,42348.9766,44435.3555,92.559937,NaN,NaN,NaN
-3197.9309,-3241.2488,-3207.2964,-3319.8374,52051.1992,51424.4570,65840.5938,44148.5820,-2325.5647,3609.0020,-2990.5293,818.5209,66221.3516,53716.3828,47596.7422,45298.9141,699.6766,4717.5366,3724.0911,32385.7090,42772.4102,44366.8047,92.563934,NaN,NaN,NaN
-37.1262,-357.1585,143.3641,-471.1971,52066.7539,51239.7422,65917.9297,43154.2422,1342.9598,3297.1504,869.9745,2852.0601,66376.1406,53683.4336,47669.7891,44191.8320,2953.6711,3912.4268,3553.9719,32655.4727,42153.3555,44461.3281,92.567932,NaN,NaN,NaN
3670.4692,3398.6721,3528.5134,3171.9583,52054.8398,51044.3203,66051.2109,41714.2305,3258.8171,2952.3076,3863.7896,3428.2656,66589.5547,53669.1289,47785.7930,42655.2617,3526.7922,1838.9003,3308.2593,33061.0664,41263.4883,44599.1719,92.571930,NaN,NaN,NaN
3087.9158,2817.7949,2847.9697,2740.6589,52030.3438,51116.9180,66042.6484,41920.2695,3123.0750,3058.3892,3395.2969,3413.3125,66547.0859,53685.8477,47771.1758,42912.1953,3477.0596,1766.6371,3350.3252,33005.2109,41405.0625,44579.6133,92.575928,NaN,NaN,NaN
-1457.6466,-1651.8833,-1607.4703,-1551.4792,52021.4023,51350.2461,65905.7734,43439.2969,170.6332,3454.4619,-851.5344,2248.1160,66311.5859,53712.3789,47648.2383,44562.9609,2174.6458,4052.9299,3615.6851,32583.5234,42347.1445,44433.8594,92.579926,NaN,NaN,NaN
-3204.2566,-3249.3623,-3213.3760,-3328.9792,52051.7578,51425.4844,65841.5078,44150.2383,-2357.1479,3608.4209,-2971.6418,782.3334,66222.0000,53717.4766,47597.8359,45300.3008,681.7505,4719.4590,3737.0999,32386.5820,42775.1563,44369.0156,92.583923,NaN,NaN,NaN
-82.0533,-427.9912,103.1757,-561.0735,52074.7578,51247.4961,65925.2578,43164.8164,1358.6061,3313.0649,918.5226,2846.4722,66382.4453,53690.4063,47676.9609,44203.3242,2921.5518,3921.3452,3559.4033,32656.7461,42158.0938,44464.2344,92.587921,NaN,NaN,NaN
3659.2935,3378.9802,3518.1421,3145.0022,52054.7734,51044.1641,66051.2109,41716.5781,3257.8337,2948.5078,3865.6448,3429.6292,66589.5078,53669.8438,47785.8594,42657.2070,3530.1003,1902.6921,3310.7627,33062.2070,41267.3320,44601.5391,92.591919,NaN,NaN,NaN
3101.7739,2819.7395,2850.6968,2740.3684,52034.0781,51120.6953,66046.4063,41923.7344,3143.3704,3059.8643,3428.2209,3413.9607,66551.1094,53689.9844,47775.4883,42915.6367,3475.8972,1878.1052,3354.2815,33009.0117,41409.0430,44583.8828,92.595917,NaN,NaN,NaN
-1413.4348,-1622.8931,-1572.4005,-1514.2635,52034.4805,51362.3398,65917.9297,43451.7891,260.3084,3477.0596,-768.8105,2279.9448,66323.2813,53723.8242,47660.4883,44576.2852,2161.8159,4080.4448,3621.6753,32589.1328,42353.1133,44439.8047,92.599915,NaN,NaN,NaN
-3190.5774,-3234.0962,-3192.6335,-3310.2932,52050.5742,51423.8984,65840.3672,44150.7500,-2308.6223,3603.9729,-2971.3066,869.3711,66220.7969,53716.8711,47596.4961,45300.2578,797.6667,4721.5376,3737.6809,32386.5586,42776.7656,44369.6406,92.603912,NaN,NaN,NaN
-41.3507,-365.5628,169.7838,-484.4517,52071.3164,51244.5234,65921.7031,43163.8555,1356.7285,3306.5159,901.1329,2843.1194,66378.6250,53687.3477,47673.6523,44201.8906,2949.3796,3917.6125,3557.3918,32653.3047,42157.1094,44461.3945,92.607910,NaN,NaN,NaN
3674.9172,3401.5554,3536.5823,3170.0583,52060.6523,51049.3945,66056.0625,41723.6406,3265.6567,2963.6401,3871.9702,3434.7253,66593.6484,53674.0234,47790.8203,42665.2773,3529.0720,1876.8535,3309.3992,33060.0391,41267.0391,44599.8633,92.611908,NaN,NaN,NaN
3093.1685,2827.0708,2853.9377,2752.4607,52028.6445,51114.3906,66041.1094,41918.5703,3127.6348,3049.6943,3403.2764,3413.4912,66546.3047,53685.4023,47770.1680,42909.6719,3481.6641,1905.8214,3351.3533,33006.5078,41406.8750,44581.5156,92.615906,NaN,NaN,NaN
-1460.4182,-1651.8833,-1609.3032,-1534.4919,52025.8281,51353.8008,65909.6563,43443.2305,175.9976,3460.2288,-821.8513,2191.9907,66315.5234,53716.5586,47652.5977,44566.8750,2080.1873,4078.6121,3607.8843,32584.3496,42348.7305,44435.3555,92.619904,NaN,NaN,NaN
-3204.3684,-3248.0659,-3210.1350,-3324.8665,52056.8320,51429.5313,65845.3750,44157.5234,-2379.8350,3619.6638,-2966.9929,748.1799,66225.1563,53721.5430,47601.7500,45308.2344,582.7770,4721.0010,3716.0891,32384.4355,42776.3867,44368.0547,92.623901,NaN,NaN,NaN
-22.5976,-344.9098,173.4048,-477.4779,52070.1758,51242.1992,65919.9609,43164.5469,1369.9607,3302.7830,938.8627,2842.3372,66377.4375,53686.6094,47671.9766,44202.2734,2920.7693,3925.9719,3557.4812,32653.3047,42159.7266,44462.1992,92.627899,NaN,NaN,NaN
3672.3916,3399.9460,3531.7097,3164.6492,52053.3672,51042.2617,66048.8906,41718.0547,3259.5771,2948.2620,3866.3152,3428.3774,66587.0313,53668.2344,47783.9609,42659.2188,3527.8428,1822.3153,3307.0745,33057.0430,41265.6992,44597.4961,92.631897,NaN,NaN,NaN
3117.5989,2837.2856,2868.9805,2758.8311,52036.5820,51121.4102,66047.6563,41925.5234,3157.0945,3067.5757,3442.5933,3421.8955,66551.5313,53690.7422,47776.5820,42917.5625,3482.8933,1767.4418,3350.1912,33004.8750,41405.5547,44580.0156,92.635895,NaN,NaN,NaN
-1383.4388,-1595.9816,-1538.8505,-1478.6572,52026.5234,51353.2188,65909.9531,43443.2734,279.2403,3462.3521,-732.8913,2278.6709,66315.2578,53716.4688,47652.3750,44566.8281,2207.2124,4083.0376,3616.0203,32583.3652,42347.8594,44434.6836,92.639893,NaN,NaN,NaN
-3176.2051,-3218.4500,-3191.4490,-3296.8374,52049.2539,51422.3320,65838.6953,44151.7578,-2374.1128,3601.4248,-2995.4019,853.7025,66218.6719,53715.8008,47595.0000,45301.5977,802.9417,4720.0625,3735.9375,32383.5195,42776.8359,44367.9648,92.643890,NaN,NaN,NaN
50.6938,-255.9275,203.1326,-397.5928,52077.5508,51249.8867,65926.7109,43174.2031,1275.7928,3318.1387,821.3819,2827.2944,66382.9141,53692.7539,47678.6836,44213.2695,2934.8958,3927.4473,3559.5598,32653.2383,42162.2266,44463.1172,92.647888,NaN,NaN,NaN
3694.7209,3426.3210,3548.8535,3189.2139,52061.0313,51049.3945,66056.2422,41727.4648,3261.9912,2959.1697,3867.7009,3433.8760,66593.6875,53675.3867,47791.0898,42669.1445,3532.2014,1941.0254,3312.7295,33061.2695,41272.1133,44602.8594,92.651886,NaN,NaN,NaN
3100.7009,2836.8833,2859.9727,2747.3198,52032.4688,51117.6094,66044.9063,41922.5039,3118.0234,3050.7002,3389.7761,3421.9177,66549.5000,53689.1563,47773.7891,42913.5156,3487.8108,1912.2140,3355.2427,33009.5898,41410.9648,44585.7813,92.655884,NaN,NaN,NaN
-1455.5902,-1644.8872,-1608.6997,-1571.4170,52035.5313,51362.3164,65918.8672,43452.5938,183.0384,3473.7515,-888.4818,2280.4368,66323.7891,53724.9414,47661.2695,44576.7305,2134.0774,4085.1165,3614.6792,32588.8652,42354.1836,44440.9219,92.659882,NaN,NaN,NaN
-3201.7979,-3244.4004,-3209.9563,-3323.0115,52059.5352,51432.1445,65848.3672,44162.6641,-2364.0544,3618.1438,-2995.3125,848.4946,66227.8125,53724.8086,47604.3633,45313.3086,716.9099,4726.4551,3724.1804,32387.9004,42782.6016,44373.1055,92.663879,NaN,NaN,NaN
-23.6034,-331.2752,161.1784,-438.9883,52073.7500,51246.6016,65923.5156,43172.8828,1340.5682,3303.9453,884.6597,2853.2671,66380.3438,53690.7422,47675.5078,44211.1445,2963.4165,3925.4355,3562.2197,32655.4277,42166.9219,44466.6914,92.667877,NaN,NaN,NaN
3683.0085,3416.2405,3539.9797,3187.1575,52063.9375,51052.1641,66058.6797,41731.8008,3267.7356,2963.1035,3873.6914,3437.7876,66595.5703,53677.5781,47793.3242,42673.5703,3533.9448,1834.4746,3313.8918,33061.2227,41274.3047,44603.8672,92.671875,NaN,NaN,NaN
3120.3928,2858.0503,2880.4915,2772.2869,52039.5742,51123.7578,66051.1719,41928.8086,3141.0906,3064.8711,3416.7100,3430.1208,66554.8438,53694.4531,47779.8242,42920.5547,3495.6116,1759.1940,3355.8684,33009.5703,41411.5234,44586.4766,92.675873,NaN,NaN,NaN
-1424.2531,-1612.6560,-1574.3898,-1519.1586,52029.8750,51356.5078,65914.0156,43446.4922,258.8332,3458.2395,-810.4072,2344.9885,66319.2109,53720.8047,47656.5117,44569.7344,2280.8389,4084.2893,3621.9883,32589.1113,42354.3867,44442.0625,92.679871,NaN,NaN,NaN
-3198.7803,-3235.1467,-3216.2595,-3314.7859,52058.5078,51430.9141,65847.5469,44162.5977,-2296.2839,3613.1147,-3004.5662,893.3768,66226.3828,53724.0234,47603.4922,45313.1992,801.9806,4726.5444,3740.2068,32387.0957,42783.6289,44373.4844,92.683868,NaN,NaN,NaN
-19.6025,-279.6427,123.2922,-412.0768,52077.2813,51249.1523,65926.4219,43178.3398,1304.7383,3312.9084,800.1924,2863.0125,66381.9063,53692.7539,47677.9023,44217.0703,2967.1716,3934.8232,3561.8845,32653.1250,42167.6367,44465.6211,92.687866,NaN,NaN,NaN
3680.1252,3423.8401,3532.0671,3188.5657,52056.8086,51044.8555,66052.0391,41726.4805,3252.6257,2947.9268,3856.8604,3430.5457,66589.0625,53671.5898,47786.5508,42667.0859,3533.5425,1971.9155,3312.5061,33058.8086,41274.0586,44602.5898,92.691864,NaN,NaN,NaN
3111.6980,2849.8696,2870.8132,2761.7590,52035.6875,51119.4219,66047.5000,41924.5859,3123.1868,3056.6458,3402.0696,3420.9568,66551.3359,53690.8789,47776.0703,42915.5938,3480.3005,1852.9596,3353.5662,33007.2891,41409.9336,44585.1563,92.695862,NaN,NaN,NaN
-1432.6797,-1620.5015,-1585.6327,-1536.9954,52033.1367,51358.5625,65916.8828,43448.6367,221.7069,3466.6660,-853.7025,2329.1411,66321.3750,53722.4375,47658.9023,44571.8789,2215.6389,4064.5974,3619.8872,32586.8984,42352.9336,44440.8086,92.699860,NaN,NaN,NaN
-3199.5850,-3243.2156,-3209.0845,-3323.4585,52053.6133,51426.0195,65842.9375,44158.4609,-2351.8953,3603.7268,-2997.0559,843.5995,66221.9141,53719.5313,47598.8438,45308.0586,786.4014,4725.1138,3739.4021,32384.3906,42782.7344,44372.2578,92.703857,NaN,NaN,NaN
-52.9066,-388.4063,130.8248,-537.8276,52077.5078,51249.7305,65926.4688,43180.5273,1304.2019,3311.4556,851.6909,2827.8086,66381.9297,53692.9805,47678.1680,44218.7891,2942.8752,3926.1062,3563.1138,32652.3887,42169.9844,44466.5156,92.707855,NaN,NaN,NaN
3673.6880,3395.9229,3532.5366,3152.2441,52062.6211,51049.8164,66057.0938,41733.1406,3262.5276,2959.6838,3867.8352,3435.4854,66593.6484,53675.9922,47791.5586,42674.1953,3534.3025,1915.2091,3313.2883,33058.3164,41276.1367,44603.7109,92.711853,NaN,NaN,NaN
3124.3044,2861.8279,2883.0845,2771.7280,52033.6758,51116.6289,66045.9609,41921.9023,3125.4890,3049.4260,3415.9946,3417.6487,66549.7266,53689.0898,47774.3477,42911.7266,3487.3860,1900.3676,3354.5049,33007.3555,41410.8086,44586.4766,92.715851,NaN,NaN,NaN
-1413.2113,-1601.3013,-1566.4773,-1520.7009,52033.1602,51358.3164,65917.1719,43447.9453,148.0356,3463.3579,-813.7152,2247.7136,66320.9297,53722.0352,47658.9023,44570.0469,2147.0637,4078.5227,3620.9602,32586.8750,42353.7148,44442.0625,92.719849,NaN,NaN,NaN
-3201.8650,-3244.2661,-3210.1575,-3323.2573,52057.5000,51428.7266,65846.2734,44162.3086,-2325.2742,3613.1147,-2995.5583,847.8463,66223.7656,53721.3867,47601.4141,45311.5898,743.5978,4724.8232,3736.8762,32381.5527,42781.7734,44370.8047,92.723846,NaN,NaN,NaN
-54.3818,-370.7707,134.2446,-497.6616,52071.3594,51243.2266,65920.5000,43175.7227,1350.2465,3301.2185,849.5450,2847.1875,66375.6016,53686.8320,47671.9570,44213.0000,2956.9121,3931.6494,3559.0010,32646.9570,42167.4141,44462.8477,92.727844,NaN,NaN,NaN
3675.8784,3403.9917,3532.1343,3167.0857,52061.1914,51048.8789,66055.7266,41732.7617,3262.2817,2956.3086,3865.6895,3433.3396,66592.0156,53674.3828,47790.2852,42673.5703,3533.7212,1818.8955,3312.3271,33055.8359,41276.2500,44602.8594,92.731842,NaN,NaN,NaN
3127.9700,2865.0688,2884.2913,2775.4385,52042.5273,51124.6055,66054.0078,41929.7695,3137.9390,3066.9497,3418.7214,3428.4893,66557.1016,53695.9063,47782.1289,42919.9531,3491.9683,1794.1968,3355.9578,33008.0039,41412.4375,44588.2852,92.735840,NaN,NaN,NaN
-1420.5427,-1609.3702,-1573.7639,-1521.9526,52031.6172,51356.2383,65916.0078,43445.5078,216.2531,3458.8206,-814.4752,2307.9739,66320.0859,53720.7617,47657.5391,44566.7617,2247.4456,4069.4031,3621.2507,32586.3828,42353.6055,44442.6211,92.739838,NaN,NaN,NaN
-1420.5427,-1609.3702,-1573.7639,-1521.9526,52031.6172,51356.2383,65916.0078,43445.5078,216.2531,3458.8206,-814.4752,2307.9739,66320.0859,53720.7617,47657.5391,44566.7617,2247.4456,4069.4031,3621.2507,32586.3828,42353.6055,44442.6211,92.743835,NaN,NaN,NaN
-3198.7581,-3246.9260,-3188.8787,-3315.4565,52056.4492,51428.2539,65845.5313,44161.8828,-2406.2322,3610.0300,-2975.8218,782.8922,66222.9219,53720.6055,47600.7422,45310.7617,702.8729,4724.6221,3738.9102,32380.5918,42782.6016,44371.1602,92.747833,NaN,NaN,NaN
-24.6763,-380.9631,227.2278,-469.8113,52080.8828,51252.2344,65929.0391,43186.6523,1311.1757,3320.9773,923.4846,2744.9729,66383.0469,53694.3867,47680.1602,44224.6445,2814.7327,3936.3433,3562.4656,32647.4258,42170.8320,44464.8164,92.751831,NaN,NaN,NaN
3677.0405,3396.4368,3541.4326,3162.4587,52060.5859,51047.4727,66055.2813,41733.5430,3266.7744,2952.2629,3871.8137,3432.2219,66591.4766,53674.1367,47789.5703,42673.3242,3535.3083,1953.9447,3314.7412,33056.5977,41279.0664,44604.9609,92.755829,NaN,NaN,NaN
3083.6243,2812.1399,2831.2729,2726.9128,52037.7422,51119.9141,66049.8281,41925.0078,3133.6250,3055.0364,3411.4126,3423.0132,66552.9219,53692.0859,47778.0820,42914.4102,3491.6328,1905.5756,3354.9968,33006.5508,41411.8125,44588.1094,92.759827,NaN,NaN,NaN
-1486.8604,-1683.3322,-1650.9891,-1562.2975,52038.6133,51362.4727,65922.2656,43451.4336,214.2415,3474.0420,-780.0311,2297.8933,66325.1797,53725.9023,47663.7070,44573.3789,2203.9490,4078.5896,3620.2673,32585.2207,42353.1133,44442.6406,92.763824,NaN,NaN,NaN
-3199.9651,-3241.9192,-3209.0623,-3314.1377,52056.3398,51427.4063,65845.7344,44162.7109,-2370.4248,3607.3032,-2986.5505,889.1300,66222.4531,53720.5820,47600.5195,45310.6719,835.2847,4727.1030,3740.7207,32380.8809,42784.6797,44372.9727,92.767822,NaN,NaN,NaN
-59.0086,-374.0788,124.8345,-495.3593,52076.3438,51248.5469,65925.3047,43184.8867,1300.8491,3309.2874,839.6656,2832.7036,66378.8438,53690.8086,47676.3359,44221.8281,2953.8052,3939.4724,3562.8679,32645.8164,42172.3516,44464.9492,92.771820,NaN,NaN,NaN
3681.7568,3409.4456,3537.8115,3173.6794,52069.0352,51055.7852,66062.6328,41742.7539,3267.8025,2971.0833,3872.5737,3440.4922,66597.3359,53680.0352,47796.6563,42683.0234,3536.6941,1856.2676,3314.2942,33054.4297,41279.3555,44604.1328,92.775818,NaN,NaN,NaN
3146.2090,2884.4031,2904.7209,2796.5830,52039.1289,51120.6523,66051.0781,41925.4570,3148.9807,3057.7856,3433.6973,3428.6680,66553.6328,53692.6445,47778.8633,42914.0742,3497.8245,1835.7040,3355.0862,33005.5000,41411.4102,44588.1094,92.779816,NaN,NaN,NaN
-1376.5098,-1565.1138,-1527.3170,-1474.7457,52030.0977,51354.0234,65914.7109,43443.0508,279.6203,3456.0491,-765.3013,2323.9556,66318.1406,53718.7070,47655.9961,44563.2969,2260.7671,4079.7744,3616.0427,32582.7852,42351.9727,44441.7031,92.783813,NaN,NaN,NaN
-3196.2771,-3242.3662,-3188.2974,-3310.6731,52061.2109,51431.9414,65849.7813,44167.8516,-2400.1750,3619.6860,-2975.4417,797.8231,66226.3359,53723.6914,47604.6094,45316.2148,674.3074,4725.8516,3726.6838,32378.2891,42784.3906,44371.9219,92.787811,NaN,NaN,NaN
-1.8105,-323.4521,239.4766,-396.6988,52077.5273,51248.5938,65926.0000,43187.1445,1316.0483,3313.4895,927.7091,2755.7913,66379.3125,53690.9219,47676.5586,44223.6641,2826.3557,3942.4675,3561.3928,32643.4707,42172.7344,44464.2773,92.791809,NaN,NaN,NaN
3681.6450,3412.7983,3544.9419,3186.3528,52061.1016,51047.6719,66055.7734,41736.5820,3268.4731,2950.7432,3873.7136,3432.1997,66590.9219,53673.8672,47789.4570,42675.0430,3537.0071,1970.1050,3315.9258,33054.3164,41281.6797,44605.6758,92.795807,NaN,NaN,NaN
3093.9731,2824.5898,2842.9854,2735.2722,52042.6602,51123.2422,66054.2734,41928.2734,3136.1284,3063.3289,3415.8159,3430.5010,66556.0938,53694.6328,47781.6563,42916.4219,3498.2937,1801.8187,3354.9297,33004.8984,41411.6797,44588.5781,92.799805,NaN,NaN,NaN
-1472.7787,-1666.5237,-1637.3546,-1564.5551,52035.3750,51358.1172,65919.4063,43446.6055,258.5203,3465.9507,-777.7065,2334.0137,66321.8281,53722.0586,47660.1328,44566.7188,2282.2024,4065.3352,3618.3674,32582.1152,42351.3906,44441.8164,92.803802,NaN,NaN,NaN
-3207.6094,-3243.8862,-3218.2263,-3317.4905,52054.6836,51425.4180,65843.9453,44162.2617,-2364.3003,3602.8999,-2992.0491,877.3953,66220.5313,53718.6602,47598.5313,45309.2422,854.9095,4726.6338,3739.8267,32377.8867,42785.8867,44372.8828,92.807800,NaN,NaN,NaN
-116.2961,-379.4432,64.5742,-471.3089,52080.6563,51251.7227,65928.5469,43191.9063,1256.9503,3317.0210,801.9359,2840.5491,66381.0547,53693.2695,47678.9727,44228.2461,2962.3660,3945.9768,3562.7786,32643.2910,42175.5273,44465.3516,92.811798,NaN,NaN,NaN
3666.1553,3408.5068,3525.4512,3187.5823,52066.9805,51052.7695,66060.7344,41743.0000,3257.5879,2963.7517,3864.0801,3438.1453,66594.6250,53677.8008,47794.0391,42681.7266,3539.0857,2011.8357,3315.2107,33052.7305,41281.9727,44605.1172,92.815796,NaN,NaN,NaN
3128.4395,2868.0864,2888.9182,2780.6462,52036.3789,51116.8281,66048.7578,41922.1484,3124.5056,3047.7498,3415.6370,3418.3416,66550.9531,53689.8047,47775.9805,42909.0234,3486.9390,1903.2063,3355.1084,33004.3398,41412.0352,44589.1133,92.819794,NaN,NaN,NaN
-1407.8022,-1594.5957,-1560.6658,-1508.7874,52033.6523,51356.0586,65917.7734,43444.5938,219.9188,3461.8604,-818.6773,2307.6387,66319.8125,53720.1133,47658.1641,44563.9219,2203.5244,4073.1360,3615.9309,32580.4160,42350.5859,44441.0313,92.823792,NaN,NaN,NaN
-46.1340,-353.2246,134.0211,-468.4926,52078.2227,51249.2188,65926.6016,43191.8828,1303.1737,3307.3652,830.0991,2853.3342,66379.0469,53691.7930,47676.7617,44227.1055,2976.0005,3940.4111,3565.4607,32644.9453,42179.9766,44468.3906,92.827789,NaN,NaN,NaN
3683.0757,3413.3572,3540.3596,3179.6697,52069.3047,51054.8906,66063.0625,41746.7969,3266.6404,2962.6343,3870.1150,3439.4417,66597.0391,53680.3281,47796.3203,42685.2148,3542.7737,1911.4093,3319.8152,33055.9922,41287.6484,44609.7422,92.831787,NaN,NaN,NaN
3146.2090,2889.2312,2908.4536,2804.0039,52044.8711,51124.2266,66056.6875,41929.5703,3142.8564,3061.6970,3429.5623,3431.8196,66558.5547,53696.8906,47783.8945,42916.9336,3502.0488,1776.1143,3358.2378,33007.4023,41415.4570,44592.9375,92.835785,NaN,NaN,NaN
-1390.7701,-1573.4734,-1538.5823,-1479.5513,52036.9844,51359.1875,65921.7031,43448.1250,273.6524,3459.5359,-798.3372,2358.0420,66324.4844,53724.7188,47662.4570,44566.9414,2316.4453,4060.1047,3624.9387,32587.4336,42358.1875,44448.9023,92.839783,NaN,NaN,NaN
-3213.7336,-3255.5537,-3224.1497,-3332.1533,52064.9688,51435.0742,65853.8906,44174.1992,-2299.4802,3616.7803,-3009.1035,875.3167,66229.5781,53727.7344,47608.2305,45321.1328,822.1418,4734.2559,3746.5098,32382.9609,42794.0430,44379.6758,92.843781,NaN,NaN,NaN
-120.4088,-434.4061,63.8142,-530.2057,52081.5078,51252.0117,65929.2422,43196.8672,1317.5236,3316.4624,809.7590,2866.2759,66381.1953,53693.9844,47679.3555,44232.8477,2976.0676,3947.4968,3565.1255,32642.7988,42180.1523,44467.1172,92.847778,NaN,NaN,NaN
3656.7454,3385.7305,3517.4045,3162.5930,52062.1953,51047.8281,66056.1328,41741.7461,3254.8833,2950.7432,3858.9839,3432.8032,66590.3125,53674.1133,47789.5938,42679.6719,3539.2644,1990.2887,3315.9036,33051.3672,41285.1016,44605.9883,92.851776,NaN,NaN,NaN
3163.3752,2910.3311,2930.2913,2827.8308,52039.8008,51119.1992,66051.6563,41924.8750,3136.9106,3053.5610,3443.5320,3421.0684,66553.2969,53692.0625,47778.9297,42911.8828,3489.0400,1905.5532,3354.7285,33003.6250,41412.2617,44589.5586,92.855774,NaN,NaN,NaN
-1340.1211,-1517.5493,-1484.0217,-1421.7721,52036.4922,51357.6914,65920.5000,43446.3789,263.5717,3465.4368,-750.2139,2327.9119,66322.4531,53722.6602,47660.7813,44565.7578,2241.5000,4070.5432,3618.9038,32581.6680,42352.0625,44443.2461,92.859772,NaN,NaN,NaN
-3198.4004,-3238.7900,-3205.5083,-3317.0210,52056.9883,51426.8906,65845.8438,44167.3359,-2320.8486,3604.8223,-2990.1938,865.5490,66221.5313,53720.2266,47600.0273,45314.0469,841.5878,4729.6064,3741.0784,32376.6797,42789.1055,44373.9336,92.863770,NaN,NaN,NaN
-64.7530,-367.5968,131.6294,-492.6548,52080.6367,51251.5664,65928.0078,43198.0977,1318.7081,3314.0037,844.5383,2838.9844,66379.8984,53693.3594,47678.4805,44234.7031,2961.3154,3943.3169,3565.3489,32641.5918,42181.0469,44466.4258,92.867767,NaN,NaN,NaN
3677.7112,3408.8867,3537.6328,3172.5618,52069.3711,51053.9297,66061.9844,41749.2813,3266.2380,2966.6799,3869.3103,3439.7546,66595.1406,53679.1875,47795.1563,42688.3672,3540.3149,1966.1488,3316.1270,33050.8320,41285.5039,44605.4961,92.871765,NaN,NaN,NaN
3147.1926,2889.1863,2908.3865,2808.0049,52039.4414,51118.1914,66051.2578,41924.6953,3142.9233,3049.5378,3433.6301,3423.4155,66552.8984,53692.0859,47778.4844,42911.7031,3498.3384,1925.4015,3356.1367,33005.0977,41413.9570,44591.1680,92.875763,NaN,NaN,NaN
-1384.3329,-1571.6182,-1530.4686,-1457.1549,52036.8477,51358.2500,65920.8984,43447.0078,225.3950,3462.1958,-777.6619,2234.3027,66323.0313,53723.6445,47661.7852,44566.9414,2151.1318,4073.1807,3613.0476,32583.3887,42354.0078,44445.2148,92.879761,NaN,NaN,NaN
-3210.1128,-3250.9495,-3219.6345,-3327.4146,52064.5430,51433.7969,65852.4141,44175.4063,-2370.3130,3622.5471,-3011.0256,787.9883,66227.1641,53726.0352,47606.6211,45323.8164,680.8341,4729.9868,3726.6392,32376.3887,42789.7969,44373.8438,92.883759,NaN,NaN,NaN
-60.4838,-359.4831,124.0969,-483.3788,52078.5586,51249.4180,65925.8672,43198.8359,1311.9132,3309.2427,819.0797,2838.2915,66377.7969,53691.8828,47676.3594,44235.5078,2947.0103,3951.4978,3565.7065,32641.3457,42183.2852,44466.8945,92.887756,NaN,NaN,NaN
3676.3923,3409.2891,3534.7271,3173.5005,52065.9492,51051.0234,66058.7422,41748.2305,3262.9299,2956.8452,3864.5942,3435.3735,66592.3516,53676.9531,47792.4102,42687.4258,3540.7397,1890.1975,3316.7751,33050.9883,41287.7617,44606.2813,92.891754,NaN,NaN,NaN
3188.0515,2939.2544,2954.8110,2854.9211,52045.0078,51122.8633,66055.9297,41929.3906,3153.2275,3064.0889,3461.7485,3430.9480,66556.6953,53695.5703,47782.8438,42917.3594,3499.5454,1812.2571,3353.9463,33002.9766,41411.6797,44589.0469,92.895752,NaN,NaN,NaN
-1301.6761,-1473.0693,-1442.4027,-1374.0063,52031.8203,51352.3711,65916.0313,43441.8438,290.2150,3454.7302,-708.6173,2350.0400,66317.6875,53718.4805,47656.1289,44560.9961,2317.4287,4076.9133,3617.4063,32579.9688,42350.3867,44441.7500,92.899750,NaN,NaN,NaN
-3182.3965,-3226.3848,-3195.1370,-3301.2185,52059.8242,51429.3281,65848.0391,44172.0508,-2391.3459,3609.0913,-3007.5613,851.8920,66223.0547,53722.5039,47602.1719,45319.8594,831.7307,4730.1655,3741.5925,32376.5449,42791.0039,44374.3594,92.903748,NaN,NaN,NaN
32.7230,-278.5251,196.9412,-390.2614,52086.4453,51256.7266,65932.4609,43208.0234,1239.5160,3327.8618,809.8931,2761.6921,66382.9609,53697.4023,47682.5039,44245.8594,2860.1963,3952.7046,3565.9749,32639.7363,42183.5313,44465.6211,92.907745,NaN,NaN,NaN
3689.9824,3423.5049,3546.2830,3189.8174,52065.5469,51050.0195,66057.9609,41749.5469,3264.3157,2958.1638,3867.2092,3433.5630,66591.1875,53676.1016,47791.3359,42689.0820,3538.1917,2017.0437,3315.7695,33048.8633,41287.2461,44604.4922,92.911743,NaN,NaN,NaN
3138.5200,2889.1641,2898.8647,2793.6775,52036.7383,51114.5273,66048.2656,41921.6328,3126.2490,3044.7993,3411.5242,3426.5669,66550.1719,53689.2891,47775.5547,42909.0430,3502.4736,1938.9020,3352.6050,33002.3047,41411.0547,44588.4648,92.915741,NaN,NaN,NaN
-1402.2814,-1573.6521,-1557.7825,-1503.5348,52039.1055,51358.8516,65922.3125,43447.6094,238.1578,3467.8730,-810.0942,2326.1907,66323.9453,53724.4492,47662.8125,44568.1914,2244.2493,4074.4546,3611.3489,32581.3770,42351.0547,44442.8203,92.919739,NaN,NaN,NaN
-3202.9824,-3241.4722,-3211.6997,-3322.0056,52061.6602,51430.3320,65849.1563,44174.6445,-2374.0681,3614.2993,-3002.0850,882.1786,66224.1016,53723.7109,47603.3359,45323.1211,825.0923,4730.7466,3729.1426,32375.7402,42791.1836,44373.7305,92.923737,NaN,NaN,NaN
-53.4207,-342.5181,135.5410,-472.0912,52074.8242,51245.2383,65921.3047,43199.2813,1278.9668,3303.3196,806.3168,2839.2080,66373.0078,53688.1953,47671.8008,44236.5156,2968.8928,3952.8611,3562.9126,32636.9648,42182.9023,44463.4063,92.927734,NaN,NaN,NaN
3679.7898,3414.9888,3537.5657,3177.6357,52065.7734,51049.9531,66057.4922,41750.7344,3259.4207,2961.0249,3861.6213,3435.2617,66590.2266,53675.5430,47790.8008,42690.9570,3536.4482,1938.3208,3312.6848,33045.5547,41285.0781,44601.4531,92.931732,NaN,NaN,NaN
3161.3635,2910.5994,2920.3000,2821.0806,52038.8359,51115.5078,66049.4453,41923.2656,3144.9797,3052.6670,3439.0615,3425.7400,66550.6875,53689.8477,47776.4961,42911.4805,3498.2043,1838.9674,3349.6323,32999.0625,41407.7461,44585.0898,92.935730,NaN,NaN,NaN
-1354.5156,-1530.2898,-1507.0439,-1430.2657,52027.9766,51347.6758,65911.9609,43437.1055,298.0381,3446.2141,-745.0060,2334.3713,66314.3359,53715.2422,47652.6211,44557.1523,2303.0566,4075.6616,3612.9358,32577.8008,42347.4141,44439.3555,92.939728,NaN,NaN,NaN
-3194.2207,-3234.0068,-3211.6326,-3312.0813,52060.5625,51429.3711,65847.9453,44174.5117,-2397.9844,3613.0029,-3029.1306,809.0884,66222.6484,53722.5938,47602.3086,45323.9063,755.1984,4727.9971,3730.9753,32373.2813,42789.3516,44371.2070,92.943726,NaN,NaN,NaN
7.3761,-283.3083,157.4233,-415.7871,52081.2852,51251.5664,65927.0078,43208.0000,1180.5743,3317.9153,731.8855,2761.5803,66377.9297,53693.6055,47677.4766,44246.7969,2865.7170,3954.0459,3562.4434,32637.0547,42184.9805,44463.7656,92.947723,NaN,NaN,NaN
3685.3333,3421.9626,3541.0974,3185.9504,52061.9063,51046.4648,66054.0547,41749.6133,3253.2292,2948.7761,3853.8206,3428.9587,66587.2969,53673.3984,47787.7148,42689.6406,3538.2363,1996.2119,3315.4119,33047.5898,41288.9219,44603.7773,92.951721,NaN,NaN,NaN
3153.3394,2904.4080,2912.0522,2804.5403,52039.4844,51116.1133,66050.1641,41923.8242,3126.7407,3050.8118,3415.6370,3426.6340,66551.0000,53690.6328,47777.0977,42912.0859,3498.1372,1795.8062,3351.0627,33000.8281,41409.1328,44586.7227,92.955719,NaN,NaN,NaN
-1368.6196,-1540.2363,-1526.0876,-1477.2043,52033.2930,51352.2148,65916.4063,43442.0000,253.5582,3456.8984,-829.5626,2362.1545,66318.1797,53719.3320,47656.8438,44562.7617,2310.9243,4042.7375,3614.2769,32578.6270,42348.1289,44440.1406,92.959717,NaN,NaN,NaN
-3200.4568,-3241.9192,-3211.8337,-3324.3079,52053.1445,51421.8633,65840.6797,44168.8125,-2345.2119,3598.4966,-3009.1929,868.9240,66215.6094,53716.3594,47595.0000,45317.5781,878.1553,4727.3267,3736.9880,32371.1133,42788.3672,44369.4414,92.963715,NaN,NaN,NaN
-111.0882,-431.0310,74.4984,-575.2892,52078.1758,51248.3242,65923.5391,43206.9023,1263.2759,3310.8296,781.9087,2838.8726,66374.2422,53690.6094,47673.8984,44245.8125,2973.8547,3949.0837,3563.3596,32635.3340,42185.0938,44462.5117,92.967712,NaN,NaN,NaN
3661.7520,3389.4854,3523.8865,3149.0032,52066.4883,51049.8867,66057.5391,41755.2695,3255.4421,2958.6555,3857.9780,3435.3066,66590.4453,53676.6836,47791.0234,42696.3906,3539.8679,1992.8815,3315.5012,33047.3867,41290.1758,44604.0430,92.971710,NaN,NaN,NaN
3152.3557,2900.4963,2910.5100,2806.2390,52035.4414,51111.9102,66046.5000,41920.3164,3125.9138,3041.3569,3424.7788,3414.9666,66548.3594,53688.0820,47773.9922,42909.1563,3491.9236,1872.2715,3350.9512,33001.0742,41409.3555,44587.2578,92.975708,NaN,NaN,NaN
-1371.6371,-1549.2217,-1528.9487,-1463.3910,52033.8984,51352.9063,65917.3906,43442.1328,206.6866,3455.6018,-794.3810,2279.3191,66319.3203,53720.4492,47658.1406,44563.8555,2216.8906,4061.1106,3615.3499,32580.5723,42348.9102,44441.9258,92.979706,NaN,NaN,NaN
-3214.2031,-3253.6538,-3226.2061,-3332.0862,52062.3984,51431.0938,65849.4219,44178.8477,-2359.0476,3613.9863,-3021.1958,801.7123,66223.8125,53724.8984,47603.8281,45330.0273,752.2256,4731.5288,3735.2000,32375.3613,42792.8398,44373.6641,92.983704,NaN,NaN,NaN
-106.8190,-401.5267,75.1689,-519.0969,52077.3516,51249.6211,65923.6328,43210.7266,1257.4644,3308.6392,767.6930,2822.3547,66374.2656,53692.1758,47674.1250,44252.6094,2943.7917,3954.4705,3565.0361,32637.3906,42189.3867,44465.6211,92.987701,NaN,NaN,NaN
3668.2341,3403.2095,3525.8757,3169.0972,52065.1680,51049.6406,66056.3125,41756.5664,3255.1963,2955.7051,3854.8711,3434.4124,66589.3516,53676.5039,47790.0859,42699.2305,3541.2761,1923.3452,3315.9482,33047.5664,41291.6953,44604.4453,92.991699,NaN,NaN,NaN
3161.7883,2910.8452,2918.7800,2821.9077,52040.4453,51117.5664,66051.3281,41926.5273,3141.0681,3055.0586,3436.4912,3424.5776,66552.1641,53692.8203,47778.5078,42918.6563,3497.5786,1801.2152,3351.7109,33001.5000,41409.6016,44587.9063,92.995697,NaN,NaN,NaN
-1359.7013,-1535.4753,-1513.1460,-1432.1210,52030.7031,51350.8516,65914.9531,43440.6367,247.9926,3450.7068,-767.7601,2293.2666,66316.4844,53718.9531,47655.5039,44564.3711,2274.0439,4041.2847,3616.0427,32580.3926,42348.3516,44441.7500,92.999695,NaN,NaN,NaN
-3220.2605,-3261.2534,-3224.1497,-3339.7751,52060.7422,51430.0664,65847.6563,44178.6250,-2429.3887,3612.1311,-2991.0432,708.3044,66221.9141,53723.7109,47602.2617,45331.1914,671.4464,4730.7241,3740.8997,32374.6445,42792.6602,44372.6367,93.003693,NaN,NaN,NaN
-138.6702,-455.9532,80.7569,-594.9587,52083.9453,51255.6563,65929.0391,43219.1992,1241.3264,3325.3137,849.7910,2755.4783,66378.8672,53697.4023,47679.6445,44263.5586,2826.6238,3958.2927,3567.4724,32637.2109,42190.6133,44465.1719,93.007690,NaN,NaN,NaN
3654.2866,3382.4224,3521.1597,3142.5210,52062.3750,51046.4219,66053.3125,41755.4922,3254.0786,2950.2290,3857.1958,3432.7136,66586.6953,53674.5625,47787.4688,42699.1836,3541.3208,2001.2634,3315.6799,33047.2305,41292.0078,44603.5977,93.011688,NaN,NaN,NaN
3155.5520,2889.3652,2906.1960,2801.5229,52042.4805,51118.7500,66052.8672,41927.4219,3156.0215,3051.8848,3458.7759,3423.2813,66554.6172,53695.1680,47780.9414,42919.3047,3498.4502,1897.3948,3354.5049,33005.9492,41412.8398,44591.0117,93.015686,NaN,NaN,NaN
-1344.7703,-1544.5278,-1502.5289,-1416.1841,52041.6758,51359.9688,65924.2578,43450.2930,305.9730,3468.8342,-694.2228,2312.6008,66325.5156,53727.5781,47665.0273,44574.6055,2259.1802,4065.6479,3619.7085,32584.8418,42352.3086,44444.9688,93.019684,NaN,NaN,NaN
-3197.1265,-3243.1709,-3206.2236,-3317.9822,52060.4297,51427.6289,65846.4453,44178.6250,-2357.2820,3605.4255,-3000.6321,838.0563,66221.2422,53722.9531,47600.9453,45328.8906,861.6821,4735.4854,3742.5984,32377.5508,42796.1250,44374.4023,93.023682,NaN,NaN,NaN
-48.4809,-378.4597,129.3942,-516.3700,52080.7695,51246.5586,65922.2656,43211.7109,1250.0884,3305.5769,804.6851,2815.9844,66374.6875,53690.6992,47673.6758,44247.5781,2968.2668,3961.9136,3564.2983,32638.0840,42191.7773,44462.6016,93.027679,NaN,NaN,NaN
3689.5576,3417.2688,3543.3101,3173.6794,52073.0586,51053.8203,66061.0469,41763.3828,3261.2759,2965.5847,3867.4775,3439.5085,66594.5625,53680.7539,47795.2930,42704.3906,3545.9253,1981.7727,3316.9316,33049.9375,41294.9805,44604.7578,93.031677,NaN,NaN,NaN
3190.0186,2934.0464,2946.5410,2828.4343,52041.3398,51112.2461,66048.8906,41921.5000,3138.8105,3041.4465,3451.3103,3422.0073,66552.4531,53690.7422,47777.0313,42907.5234,3505.7593,1950.5696,3352.1804,33006.6641,41412.7969,44589.3594,93.035675,NaN,NaN,NaN
-1322.3068,-1508.4075,-1479.0372,-1429.3269,52038.8594,51352.4141,65918.9609,43441.9336,240.5495,3448.0918,-725.6717,2246.2607,66323.0078,53722.3711,47660.6680,44559.7891,2219.9751,4074.4546,3606.9680,32587.2559,42353.7617,44445.1914,93.039673,NaN,NaN,NaN
-3220.7969,-3262.8181,-3219.2993,-3341.6528,52069.4609,51435.8789,65854.0234,44186.9609,-2444.4539,3616.6238,-2987.5117,683.8963,66227.9688,53729.1445,47608.6563,45338.3203,616.7964,4736.1782,3713.8315,32377.3496,42796.5703,44374.1563,93.043671,NaN,NaN,NaN
-82.8356,-390.1273,155.0093,-520.7957,52083.6758,51251.9688,65926.3594,43219.3086,1247.5178,3315.1436,873.8638,2756.2158,66376.9922,53694.8125,47677.1406,44259.3789,2846.1370,3967.4346,3567.0254,32638.9102,42194.7500,44465.4180,93.047668,NaN,NaN,NaN
3670.8938,3403.7458,3538.9963,3168.8738,52065.0547,51047.8516,66054.5625,41759.3398,3257.6326,2950.6536,3861.9565,3433.7419,66588.0156,53675.6797,47788.9219,42702.1797,3545.2324,1987.2041,3317.6245,33048.6641,41295.3594,44604.6719,93.051666,NaN,NaN,NaN
3165.3645,2896.4731,2918.9143,2815.4927,52047.0195,51121.7695,66056.0625,41930.6875,3169.0078,3060.5125,3472.4329,3430.6797,66557.5938,53697.5820,47784.0938,42923.3047,3506.4968,1819.5884,3354.2144,33006.1055,41412.5508,44590.6797,93.055664,NaN,NaN,NaN
-1330.5322,-1534.0896,-1483.4182,-1382.3436,52038.9063,51356.2383,65921.1719,43445.8008,357.8291,3460.3628,-656.8730,2338.5066,66323.4375,53725.0078,47662.3672,44570.3398,2337.9031,4068.1067,3619.4402,32585.6914,42351.7930,44445.2813,93.059662,NaN,NaN,NaN
-3198.4451,-3234.3867,-3216.4829,-3308.1028,52059.0664,51427.1602,65845.1719,44179.3594,-2385.1099,3604.2856,-3015.8538,872.3662,66220.2344,53722.6406,47600.1836,45332.6445,925.6528,4734.3228,3742.6653,32376.8574,42796.5703,44374.2891,93.063660,NaN,NaN,NaN
-70.1174,-329.8894,75.4818,-462.1670,52084.7930,51255.8789,65928.2578,43225.5664,1184.6201,3324.4419,706.0692,2828.6580,66377.9922,53697.5156,47679.1523,44270.7344,2971.8879,3965.6240,3568.3218,32636.7188,42194.9297,44464.6133,93.067657,NaN,NaN,NaN
3678.4487,3422.6108,3535.6211,3188.2751,52068.8555,51051.6953,66057.8750,41765.8633,3250.5918,2962.0308,3850.6467,3436.9604,66590.6016,53678.9648,47792.0273,42711.3672,3544.8972,2034.8580,3317.2446,33047.1211,41295.5859,44603.5977,93.071655,NaN,NaN,NaN
3170.1926,2916.4109,2931.2300,2824.1204,52036.7578,51111.5078,66046.9219,41921.2109,3134.1392,3040.6418,3437.0054,3419.5039,66548.9453,53689.5820,47774.6836,42913.8516,3498.0925,1914.7397,3351.4875,33003.6016,41409.3086,44588.0195,93.075653,NaN,NaN,NaN
-1341.0599,-1522.0643,-1494.4600,-1426.2424,52039.6641,51356.9531,65921.9531,43446.7617,279.6427,3461.1899,-774.1079,2305.4258,66324.0156,53725.9688,47663.1055,44572.9102,2237.3201,4066.5422,3607.7502,32585.1992,42350.7656,44444.5430,93.079651,NaN,NaN,NaN
-3209.9563,-3251.0835,-3221.0874,-3329.0686,52064.7227,51431.9883,65849.7578,44185.5977,-2370.5366,3609.7620,-3021.8887,832.2448,66224.2578,53726.8203,47604.8789,45340.6016,807.3450,4735.1050,3712.7141,32376.5898,42796.6836,44373.7109,93.083649,NaN,NaN,NaN
-92.9162,-397.7493,93.8326,-517.3758,52078.6445,51249.2188,65922.2656,43221.2539,1245.0592,3307.5217,767.0895,2836.1233,66372.8125,53692.6641,47673.5664,44265.6406,2982.1472,3959.3208,3566.7349,32637.3008,42196.6953,44464.9063,93.087646,NaN,NaN,NaN
3668.3235,3402.6731,3531.7991,3172.0923,52067.2461,51049.9727,66056.1328,41765.7070,3255.8220,2958.3203,3856.4358,3435.5747,66588.9297,53677.6914,47790.5078,42711.7891,3544.2937,1960.2703,3316.9541,33046.9844,41296.3203,44603.2852,93.091644,NaN,NaN,NaN
3182.3965,2925.4634,2942.0483,2828.0320,52041.1172,51114.0586,66049.8516,41923.7344,3144.7114,3048.3755,3449.7458,3425.8740,66551.8281,53692.0859,47777.7891,42916.3984,3506.7427,1807.2279,3350.4370,33004.2266,41409.0430,44587.7070,93.095642,NaN,NaN,NaN
-1319.6693,-1506.5299,-1475.1481,-1415.3571,52031.9766,51348.1016,65914.1953,43437.5508,298.9322,3445.0520,-733.2936,2337.4336,66317.0859,53718.9063,47655.6172,44562.0234,2347.8496,4057.5791,3615.0593,32583.7910,42348.3516,44442.4844,93.099640,NaN,NaN,NaN
-3218.3606,-3254.6375,-3234.4985,-3334.5896,52061.3672,51427.7422,65846.0000,44182.3789,-2345.9048,3608.2197,-3029.6448,798.3820,66220.9297,53723.5117,47601.2109,45336.3555,822.7230,4734.4121,3739.6033,32375.4727,42796.2344,44372.2344,93.103638,NaN,NaN,NaN
-149.6002,-415.7871,12.3158,-539.9064,52081.7539,51248.9258,65922.7344,43223.1758,1187.6376,3312.7295,697.6873,2822.1311,66373.7500,53692.5078,47673.9883,44265.2578,2966.4788,3968.4180,3564.7007,32635.2676,42196.1367,44461.7773,93.107635,NaN,NaN,NaN
3656.9912,3399.8342,3516.1304,3170.6396,52063.0430,51044.7422,66051.3906,41761.6836,3239.2146,2947.3010,3841.2588,3430.1880,66584.3438,53673.0391,47785.6133,42706.1367,3544.7407,2048.3137,3315.8364,33045.8906,41295.9883,44601.9414,93.111633,NaN,NaN,NaN
3176.7192,2918.1765,2935.9685,2822.1536,52041.0273,51113.7656,66049.7188,41923.3984,3134.1392,3046.3416,3442.7944,3416.5310,66551.7344,53691.7500,47777.6133,42916.1953,3492.7505,1867.3541,3350.9287,33004.4492,41409.3086,44587.9492,93.115631,NaN,NaN,NaN
-1336.6790,-1525.2383,-1492.5824,-1432.7692,52038.2109,51353.6016,65919.8281,43442.9844,227.4290,3457.7253,-759.5793,2266.4443,66322.3594,53723.6211,47661.1836,44568.7734,2231.4417,4050.0688,3616.1099,32584.9082,42349.1563,44443.4688,93.119629,NaN,NaN,NaN
-3209.6880,-3251.1729,-3221.7581,-3330.3875,52056.9648,51424.2539,65842.3125,44179.6055,-2388.3286,3601.6482,-3019.8770,792.3693,66217.3984,53720.3164,47597.5469,45334.6797,850.2827,4733.0713,3739.9160,32374.2871,42795.5195,44371.4297,93.123627,NaN,NaN,NaN
-123.8734,-440.5305,61.3108,-585.0345,52079.8086,51250.0664,65922.0234,43225.7227,1226.9766,3312.7742,745.1848,2823.0251,66372.3594,53692.5977,47673.5664,44271.5859,2977.9451,3959.6338,3566.8464,32634.5293,42197.3438,44462.3789,93.127625,NaN,NaN,NaN
-123.8734,-440.5305,61.3108,-585.0345,52079.8086,51250.0664,65922.0234,43225.7227,1226.9766,3312.7742,745.1848,2823.0251,66372.3594,53692.5977,47673.5664,44271.5859,2977.9451,3959.6338,3566.8464,32634.5293,42197.3438,44462.3789,93.131622,NaN,NaN,NaN
3664.5237,3392.8606,3524.6687,3149.0479,52066.4648,51048.4336,66054.2344,41767.2070,3251.2622,2958.7673,3851.1384,3433.6301,66586.8750,53676.0117,47788.6992,42714.2500,3543.5112,1981.0574,3315.1211,33044.3945,41296.1445,44601.0508,93.135620,NaN,NaN,NaN
3188.1187,2928.7712,2944.1941,2829.6860,52035.1055,51108.2461,66044.2578,41917.7227,3142.8787,3037.4456,3451.3774,3415.8828,66546.4844,53686.9219,47772.4492,42911.3477,3500.1489,1875.1548,3348.2019,33001.7891,41406.0898,44585.3789,93.139618,NaN,NaN,NaN
-1309.8569,-1499.0643,-1466.0732,-1406.4164,52033.4297,51349.5977,65915.2734,43438.3555,219.8965,3452.4055,-727.5046,2222.0093,66317.4688,53719.2422,47656.7344,44564.9297,2186.6265,4053.9133,3609.7842,32581.3105,42345.0000,44439.8242,93.143616,NaN,NaN,NaN
-3214.2703,-3255.8445,-3224.6189,-3333.6731,52062.5742,51429.3516,65846.6484,44185.4414,-2377.3315,3616.6462,-3021.1733,787.3178,66220.4375,53723.7109,47601.5234,45341.9219,770.6658,4732.3335,3733.5906,32372.4766,42794.2031,44369.5742,93.147614,NaN,NaN,NaN
-127.8967,-445.5150,64.9318,-573.0093,52075.7422,51246.0664,65917.7266,43223.8906,1265.2651,3306.2922,748.5599,2831.1836,66367.9844,53689.0664,47669.2070,44270.2422,2973.7654,3965.4675,3565.2373,32631.9590,42196.4922,44460.3242,93.151611,NaN,NaN,NaN
3664.5684,3392.7488,3525.6970,3155.8650,52066.4648,51048.8789,66053.9609,41768.9492,3252.9609,2955.9287,3851.1606,3433.2502,66586.8281,53676.4375,47788.8789,42716.7539,3545.0313,1896.7466,3316.5740,33045.3320,41298.3984,44602.1445,93.155609,NaN,NaN,NaN
3197.1487,2942.8977,2959.7061,2851.8367,52045.8555,51117.7227,66053.7578,41927.3789,3154.6804,3056.8469,3460.5864,3428.5117,66555.4453,53695.7070,47781.9023,42922.5234,3506.6086,1797.4602,3351.3982,33005.5898,41409.3555,44588.8008,93.159607,NaN,NaN,NaN
-1305.9453,-1489.4978,-1451.8799,-1378.6108,52033.0469,51348.1250,65915.1328,43437.1250,307.1353,3447.2200,-704.9517,2335.3101,66317.6719,53719.5547,47656.4414,44563.6758,2357.1479,4056.3499,3615.2380,32584.5723,42347.1875,44442.8672,93.163605,NaN,NaN,NaN
-3199.1604,-3247.5295,-3202.3342,-3316.0823,52058.1289,51425.2617,65842.7578,44182.0195,-2433.5684,3605.4705,-3007.3601,758.0817,66216.8359,53720.5820,47598.1055,45338.7695,815.3469,4731.4170,3739.0220,32372.2988,42794.6250,44369.4414,93.167603,NaN,NaN,NaN
-60.4391,-410.0204,151.4554,-507.0717,52084.5039,51254.1367,65925.3516,43233.7031,1194.7230,3324.6206,796.9514,2709.8359,66374.4219,53695.6367,47676.8711,44281.5078,2832.1895,3968.3955,3567.6289,32632.6738,42198.8633,44461.0156,93.171600,NaN,NaN,NaN
3673.1292,3396.7944,3534.2129,3159.8884,52062.6641,51044.4102,66050.0938,41766.1992,3255.9114,2950.0278,3856.3911,3428.2209,66582.3984,53672.3945,47784.5859,42713.8008,3542.4607,2029.5830,3315.3447,33043.0078,41296.9023,44599.8438,93.175598,NaN,NaN,NaN
3147.6619,2875.9094,2892.9414,2774.2983,52037.6289,51109.7188,66045.7813,41918.9961,3135.1450,3039.9937,3436.7817,3420.7556,66547.9141,53688.1953,47774.3711,42913.7617,3504.3958,1913.1752,3348.0229,33002.5742,41405.9570,44585.5156,93.179596,NaN,NaN,NaN
-1396.3582,-1600.7424,-1564.3762,-1486.5474,52039.3984,51353.8672,65920.0313,43441.9102,240.4601,3463.0898,-717.5133,2266.6455,66322.0938,53723.3555,47661.6523,44570.0469,2233.6321,4058.9202,3609.5383,32582.2266,42344.3945,44440.0938,93.183594,NaN,NaN,NaN
-3211.4761,-3253.5198,-3223.3450,-3326.7664,52060.8984,51427.2266,65845.0156,44185.0156,-2438.7317,3610.4771,-3006.8013,784.3004,66219.3438,53723.0195,47600.2305,45342.2109,822.7900,4733.8760,3736.4070,32374.2871,42797.1953,44371.5859,93.187592,NaN,NaN,NaN
-103.1757,-423.4091,83.1261,-559.9112,52077.7305,51247.5430,65918.8438,43229.3008,1212.3362,3308.0356,760.7192,2795.8455,66368.9219,53690.5430,47670.5703,44276.2773,2955.8394,3973.4695,3568.3889,32632.8984,42201.0078,44461.5977,93.191589,NaN,NaN,NaN
3673.5984,3400.7061,3534.3472,3160.5588,52071.0898,51052.5234,66057.4688,41775.6094,3258.2808,2965.9424,3857.3745,3437.8994,66589.1563,53679.1875,47791.9180,42724.4180,3547.7358,1958.1245,3317.9153,33044.6836,41299.8516,44601.4727,93.195587,NaN,NaN,NaN
3201.7307,2938.0474,2959.4380,2841.6443,52043.3320,51114.1250,66051.0781,41923.7109,3153.5852,3048.5767,3461.6370,3427.7739,66552.7422,53692.9336,47779.0859,42918.4766,3511.8167,1854.9489,3351.8452,33005.9922,41408.7500,44588.5547,93.199585,NaN,NaN,NaN
-1296.9376,-1498.4161,-1448.9071,-1390.3903,52034.5469,51348.6367,65916.0938,43437.1250,307.9176,3443.7556,-705.0187,2327.6658,66318.8984,53720.4023,47657.5820,44563.9023,2350.5317,4067.7043,3614.2546,32586.6973,42348.5313,44444.4961,93.203583,NaN,NaN,NaN
-3204.9270,-3253.4976,-3209.4646,-3321.2903,52065.8398,51431.8320,65849.4219,44190.0898,-2448.9019,3608.4878,-3016.9490,743.6649,66223.1641,53726.9102,47604.6328,45348.3594,764.3849,4735.2393,3728.6509,32376.0977,42799.1641,44373.0391,93.207581,NaN,NaN,NaN
-52.9513,-395.9835,155.5905,-485.1223,52084.3242,51253.3516,65924.3438,43236.7227,1187.1011,3319.2563,792.2799,2718.5085,66373.7500,53695.6172,47676.0000,44285.1523,2843.1194,3974.7434,3568.4111,32634.2832,42203.4453,44462.8945,93.211578,NaN,NaN,NaN
3675.4761,3401.3989,3538.7505,3170.5500,52065.3477,51046.8672,66052.1719,41772.0117,3258.5266,2950.0725,3858.7603,3430.7915,66584.8125,53675.5000,47786.9531,42720.6211,3547.0430,2029.7618,3319.7703,33046.5156,41303.2734,44603.6875,93.215576,NaN,NaN,NaN
3158.3013,2887.4875,2905.6597,2784.8931,52044.8711,51115.3320,66052.3281,41924.8984,3135.9050,3050.9014,3436.6477,3431.3279,66553.9688,53694.1641,47780.3594,42920.6445,3513.6494,1771.9121,3351.2192,33006.3516,41408.6836,44588.4883,93.219574,NaN,NaN,NaN
-1382.3883,-1587.8903,-1550.9204,-1496.4716,52038.6797,51351.7695,65919.3594,43439.8086,287.0187,3456.2500,-735.4618,2367.3403,66321.3125,53722.7734,47660.4883,44567.7891,2391.9272,4039.8765,3614.3665,32585.1992,42345.7813,44442.1719,93.223572,NaN,NaN,NaN
-3216.6619,-3258.1689,-3228.4858,-3333.2708,52056.7188,51422.8477,65840.7500,44182.3789,-2395.0339,3599.4578,-3009.3269,828.6909,66214.8750,53719.2188,47596.0273,45340.1563,933.0959,4733.4736,3740.1396,32373.4160,42797.1289,44370.3359,93.227570,NaN,NaN,NaN
-194.2590,-513.7996,-4.3362,-617.0422,52080.8125,51250.1797,65920.8359,43235.8281,1168.9515,3315.1660,721.4919,2802.6628,66370.2422,53692.7109,47672.6250,44284.9297,2969.9656,3974.9670,3567.6289,32631.7793,42202.7070,44460.4570,93.231567,NaN,NaN,NaN
3649.8833,3377.1025,3512.9565,3151.3948,52068.0508,51048.7656,66054.0078,41775.3867,3244.1321,2958.3203,3847.6963,3434.8147,66586.4922,53677.1992,47788.9219,42725.4258,3547.5347,2069.3245,3318.2058,33045.1094,41302.3555,44601.8320,93.235565,NaN,NaN,NaN
3196.2771,2933.0181,2953.4028,2834.4917,52039.9102,51110.2344,66047.5938,41919.9336,3137.1567,3037.7361,3453.2102,3418.5652,66550.2813,53690.8086,47776.3828,42915.9063,3504.2617,1881.3687,3352.2476,33008.1836,41409.7773,44589.7617,93.239563,NaN,NaN,NaN
3196.2771,2933.0181,2953.4028,2834.4917,52039.9102,51110.2344,66047.5938,41919.9336,3137.1567,3037.7361,3453.2102,3418.5652,66550.2813,53690.8086,47776.3828,42915.9063,3504.2617,1881.3687,3352.2476,33008.1836,41409.7773,44589.7617,93.243561,NaN,NaN,NaN
-1305.0959,-1507.0663,-1460.9994,-1406.4835,52037.8555,51350.8047,65918.5781,43438.5781,271.4396,3450.9080,-722.3190,2313.6514,66321.2188,53722.8164,47660.3984,44567.5234,2301.2014,4055.7686,3614.0088,32587.8594,42347.3906,44444.0938,93.247559,NaN,NaN,NaN
-3213.6667,-3253.9446,-3226.4519,-3330.3875,52061.7500,51427.0039,65844.7969,44187.5195,-2384.0593,3600.8213,-3022.4250,815.0787,66218.7422,53723.1328,47600.1406,45347.0820,865.9736,4734.2783,3727.6897,32374.6895,42798.2031,44370.7813,93.251556,NaN,NaN,NaN
-3213.6667,-3253.9446,-3226.4519,-3330.3875,52061.7500,51427.0039,65844.7969,44187.5195,-2384.0593,3600.8213,-3022.4250,815.0787,66218.7422,53723.1328,47600.1406,45347.0820,865.9736,4734.2783,3727.6897,32374.6895,42798.2031,44370.7813,93.255554,NaN,NaN,NaN
-144.1464,-440.7764,39.4732,-573.4787,52078.3555,51247.6992,65918.1719,43235.7813,1186.8552,3306.0017,723.2130,2803.8252,66367.8906,53691.1445,47670.1680,44285.5781,2971.2844,3969.1333,3567.2041,32633.4121,42205.5664,44461.5977,93.259552,NaN,NaN,NaN
3663.3613,3396.7722,3522.9924,3156.3567,52067.1563,51047.7617,66052.3750,41776.1016,3248.6694,2955.6604,3848.2549,3433.5854,66584.9297,53676.2578,47787.7813,42727.1016,3548.2500,1956.9175,3317.9153,33045.0195,41302.9141,44600.9141,93.263550,NaN,NaN,NaN
3208.7268,2946.0269,2964.4670,2844.5723,52042.7500,51111.7305,66049.4219,41921.8125,3147.6619,3046.5203,3462.5979,3426.3435,66551.5313,53691.9727,47777.9688,42918.9922,3511.4590,1771.8004,3350.0347,33006.8867,41407.0078,44587.1914,93.267548,NaN,NaN,NaN
3208.7268,2946.0269,2964.4670,2844.5723,52042.7500,51111.7305,66049.4219,41921.8125,3147.6619,3046.5203,3462.5979,3426.3435,66551.5313,53691.9727,47777.9688,42918.9922,3511.4590,1771.8004,3350.0347,33006.8867,41407.0078,44587.1914,93.271545,NaN,NaN,NaN
-1285.4264,-1486.6368,-1441.7545,-1390.1667,52033.6953,51346.0664,65914.3750,43434.0664,299.6475,3443.1521,-703.4764,2339.5571,66317.1563,53719.0391,47656.0195,44563.0742,2382.4946,4033.3274,3614.9700,32587.5684,42345.8477,44442.7109,93.275543,NaN,NaN,NaN
-3223.9932,-3265.7686,-3236.3538,-3341.7422,52060.7422,51426.0859,65843.4531,44187.2070,-2385.2886,3606.9680,-3028.1248,758.2606,66217.8203,53722.6172,47599.4023,45347.5977,837.0505,4734.6357,3741.2124,32375.4063,42798.8516,44370.7148,93.279541,NaN,NaN,NaN
-208.5641,-529.1999,-20.2730,-639.7740,52083.0039,51251.6992,65921.5703,43241.7070,1181.3120,3319.4797,702.3812,2809.2566,66371.1094,53694.5195,47673.8984,44293.1758,2963.9082,3976.0623,3569.1936,32633.1875,42206.2617,44460.8594,93.283539,NaN,NaN,NaN
-208.5641,-529.1999,-20.2730,-639.7740,52083.0039,51251.6992,65921.5703,43241.7070,1181.3120,3319.4797,702.3812,2809.2566,66371.1094,53694.5195,47673.8984,44293.1758,2963.9082,3976.0623,3569.1936,32633.1875,42206.2617,44460.8594,93.287537,NaN,NaN,NaN
3644.6978,3370.9558,3506.2285,3140.6658,52064.1641,51044.7422,66049.2422,41774.9180,3239.3489,2948.9548,3840.8789,3430.7244,66582.2422,53674.0703,47785.0313,42726.6992,3549.5686,2037.2496,3317.9600,33045.5117,41304.0547,44600.8477,93.291534,NaN,NaN,NaN
3227.8376,2968.8479,2986.8857,2869.9863,52043.0859,51112.0664,66049.6250,41921.8789,3143.2585,3043.4805,3475.8972,3421.4485,66552.5625,53693.1797,47778.9961,42920.1328,3505.4910,1880.8322,3351.7334,33010.3086,41409.2891,44589.7617,93.295532,NaN,NaN,NaN
-1247.7638,-1443.9897,-1399.2639,-1345.1726,52039.9102,51351.3438,65919.6250,43438.9805,288.4045,3455.8030,-668.6747,2327.2859,66322.7422,53724.3828,47661.9414,44569.7344,2328.0012,4051.8794,3615.8193,32590.3398,42347.0313,44444.6328,93.299530,NaN,NaN,NaN
-3209.9563,-3251.3518,-3219.8804,-3328.4204,52057.9727,51423.0703,65840.5703,44185.5508,-2382.8748,3601.1340,-3008.5894,787.1390,66215.4531,53720.5820,47596.8750,45346.7500,900.4400,4735.4180,3740.6313,32375.9414,42799.4102,44370.5820,93.303528,NaN,NaN,NaN
-142.6935,-457.2720,54.4935,-597.9762,52082.1094,51251.3203,65920.2734,43242.8906,1209.9669,3316.4399,753.0973,2787.3965,66370.1250,53694.0742,47673.2070,44295.2539,2961.4944,3971.7708,3569.6406,32633.7461,42207.6250,44460.5703,93.307526,NaN,NaN,NaN
3667.8765,3395.6545,3529.4744,3150.9028,52072.2109,51051.8086,66055.6797,41783.3438,3255.0845,2965.9871,3854.7146,3438.6592,66588.3281,53680.4180,47791.5820,42736.8242,3551.3567,1998.8047,3319.0327,33047.2305,41305.5547,44601.4063,93.311523,NaN,NaN,NaN
3217.3323,2953.9617,2973.0947,2852.7979,52040.9180,51109.2500,66047.0078,41919.8242,3150.1431,3038.1384,3468.2307,3423.7507,66550.6875,53691.5469,47776.5391,42918.5234,3514.3423,1888.2753,3351.5769,33011.2227,41409.1523,44589.3164,93.315521,NaN,NaN,NaN
-1269.5120,-1478.1655,-1424.4319,-1374.9675,52033.1602,51344.5703,65912.6797,43431.9648,259.5261,3445.7224,-688.2772,2251.7371,66316.3750,53718.1484,47655.3477,44563.3867,2253.8381,4047.8113,3605.8057,32586.1602,42341.4219,44438.8203,93.319519,NaN,NaN,NaN
-3209.9116,-3252.6704,-3221.0652,-3328.0181,52062.3281,51426.5781,65843.7188,44190.0234,-2389.6472,3616.0203,-3019.6536,776.7231,66217.5078,53722.9961,47599.5352,45352.7148,811.2789,4733.1157,3728.2485,32373.7285,42796.3906,44366.8242,93.323517,NaN,NaN,NaN
3666.3564,3396.2581,3527.1499,3153.9651,52065.5938,51045.7500,66049.0859,41779.2539,3252.4692,2953.1794,3850.4456,3431.9985,66582.0703,53674.8945,47785.2109,42733.3828,3549.8591,1919.5454,3317.2000,33045.5547,41304.4570,44598.6133,93.327515,NaN,NaN,NaN
-1197.9865,-1392.2454,-1350.1794,-1294.4342,52037.0273,51347.6094,65916.0938,43435.8984,337.5337,3446.8176,-615.0977,2369.4861,66320.4141,53722.7070,47659.1484,44568.5508,2422.4597,4060.5295,3616.1545,32593.7363,42347.2773,44444.7422,93.331512,NaN,NaN,NaN
-3194.7571,-3240.1758,-3207.6763,-3311.9248,52060.8555,51425.7070,65842.1328,44190.1797,-2447.7842,3605.7385,-3020.4583,776.3878,66217.4453,53723.5547,47599.2227,45354.4375,900.2388,4736.2451,3741.7937,32379.2051,42801.2656,44370.8711,93.335510,NaN,NaN,NaN
3681.3098,3411.1443,3538.2588,3168.4043,52066.6211,51046.0195,66049.0469,41781.8477,3255.5537,2955.7498,3854.4688,3430.9702,66582.6953,53675.9922,47785.8359,42738.1211,3549.0322,2060.9648,3317.6470,33047.1406,41305.4180,44598.1211,93.339508,NaN,NaN,NaN
3204.4353,2951.3020,2958.4543,2836.9727,52040.3789,51107.9336,66045.1328,41919.2188,3134.4744,3035.6575,3448.5388,3427.9976,66549.9453,53691.5938,47775.8672,42921.2500,3519.8855,1930.0507,3350.5039,33014.3281,41408.3477,44587.9297,93.343506,NaN,NaN,NaN
-1312.4050,-1500.1149,-1473.4940,-1428.5670,52042.8828,51352.9961,65920.5469,43440.7031,269.0703,3459.3347,-709.1985,2319.3064,66325.2656,53727.7578,47664.4883,44576.3945,2322.6145,4059.8142,3609.4714,32595.9492,42346.6289,44444.0078,93.347504,NaN,NaN,NaN
-3216.3264,-3256.1797,-3226.1614,-3332.5110,52064.8789,51429.0156,65844.9063,44195.1641,-2443.2468,3613.7405,-3019.8323,793.9340,66220.8594,53727.6445,47602.6211,45361.9922,886.2019,4739.5083,3732.6294,32383.3184,42803.7891,44372.1680,93.351501,NaN,NaN,NaN
-113.8821,-418.7599,82.5003,-551.5293,52081.6641,51250.5586,65917.5078,43249.8203,1177.4452,3312.0366,722.6542,2784.6025,66369.2344,53695.7734,47672.2695,44307.3477,2974.5701,3990.2556,3573.2839,32640.7871,42215.0664,44462.3555,93.355499,NaN,NaN,NaN
3679.5217,3411.3901,3540.3374,3168.4268,52074.0195,51053.1914,66054.9219,41790.6523,3256.6492,2966.1658,3854.6477,3440.8499,66589.1094,53683.5000,47792.7227,42749.9219,3556.5200,2018.6531,3321.5586,33054.1367,41310.7383,44601.9414,93.359497,NaN,NaN,NaN
3230.3857,2977.2300,2984.4719,2869.8967,52044.0898,51110.5469,66047.1641,41922.8398,3153.9204,3045.0005,3473.6174,3431.5737,66552.0469,53694.3438,47778.3281,42927.6641,3521.0479,1839.3026,3349.4312,33015.8281,41407.0078,44585.9844,93.363495,NaN,NaN,NaN
-1256.4138,-1448.3483,-1414.8430,-1351.9452,52033.4063,51343.2070,65910.8672,43432.3008,327.4307,3437.6758,-669.8147,2360.7913,66317.0391,53720.5820,47655.5039,44569.3984,2420.1350,4062.2283,3611.9077,32596.6875,42344.6836,44441.2578,93.367493,NaN,NaN,NaN
-3204.3906,-3245.4509,-3220.9309,-3319.6362,52066.1953,51429.9766,65844.9063,44197.8672,-2457.2612,3605.3586,-3042.8323,761.3898,66221.6875,53729.3672,47603.6055,45367.8711,859.8045,4739.2178,3731.0647,32385.6426,42804.1914,44371.2070,93.371490,NaN,NaN,NaN
-38.1768,-336.9302,124.6557,-468.9396,52087.6992,51255.8320,65921.7031,43258.1328,1109.1158,3323.7712,682.4658,2714.7087,66373.4609,53700.9375,47676.9844,44319.4844,2881.9890,3987.8640,3571.8757,32642.9551,42216.6094,44461.6641,93.375488,NaN,NaN,NaN
3689.6248,3425.0918,3545.0759,3181.2344,52068.4531,51047.9414,66048.9297,41788.1055,3252.8716,2951.7266,3849.4844,3432.9148,66585.0391,53680.3516,47788.0039,42749.6758,3556.1401,2039.0602,3322.8325,33057.0234,41313.1094,44602.3672,93.379486,NaN,NaN,NaN
3226.5413,2977.9004,2978.9287,2859.3020,52044.5586,51110.9258,66047.2344,41923.8477,3140.0847,3043.5251,3452.6516,3434.8596,66553.4766,53696.1523,47779.3984,42931.6641,3525.0935,1776.4496,3350.9734,33020.2773,41408.8633,44587.7734,93.383484,NaN,NaN,NaN
-1268.2603,-1449.9576,-1431.3386,-1397.4087,52034.9727,51344.0547,65911.4688,43433.8867,321.4628,3446.2588,-737.4958,2435.1777,66317.4688,53721.3867,47656.2852,44573.9570,2492.8230,4025.9736,3610.8572,32596.6426,42341.5547,44438.3047,93.387482,NaN,NaN,NaN
-3208.5706,-3249.1611,-3221.2664,-3328.6887,52054.1484,51418.4219,65832.9922,44187.9648,-2381.6677,3595.3450,-3022.7605,857.8376,66210.4219,53719.2422,47592.0938,45359.5781,1026.3026,4734.5015,3737.6587,32381.6191,42798.6953,44364.7031,93.391479,NaN,NaN,NaN
-179.7304,-497.0357,9.9689,-629.9615,52080.7695,51249.7305,65914.4844,43254.1563,1173.7124,3315.3223,699.6766,2797.1643,66366.5313,53695.0117,47670.1016,44317.6758,2994.8877,3984.2207,3569.8865,32639.6035,42213.0547,44456.4570,93.395477,NaN,NaN,NaN
3657.0359,3385.6633,3518.7456,3142.3870,52069.5703,51048.5430,66049.1094,41790.7422,3247.6414,2959.0803,3846.6458,3436.8711,66584.8828,53680.6406,47787.9844,42754.8633,3555.6035,2070.9561,3320.1951,33055.2773,41310.8945,44599.1953,93.399475,NaN,NaN,NaN
3228.9329,2978.8840,2982.2366,2867.5723,52040.4453,51107.0156,66043.2344,41919.9805,3138.8330,3033.8916,3462.5310,3423.4824,66550.1484,53693.3359,47775.6914,42929.0703,3517.2927,1872.4950,3351.0181,33021.8398,41408.7070,44587.9063,93.403473,NaN,NaN,NaN
