Fp1,Fp2,F3,F4,C3,C4,P3,P4,O1,O2,F7,F8,T7,T8,P7,P8,Fz,Cz,Pz,AFz,Cpz,POz,TimeStamp
-209.3911,-491.0231,3031.7458,3873.6018,144059.0938,157306.1563,172125.2500,131352.3750,3666.7141,3790.9004,2772.5996,4269.2949,123216.9609,113608.6797,132502.4531,144390.2031,4219.1377,4436.6646,4170.2095,76966.6875,119901.5469,159986.9844,158.207031
-2276.6145,-2223.7080,2291.2996,3855.0276,144040.8438,157374.3125,172115.9375,131624.5156,3612.6677,3799.5952,1868.2928,4301.7944,123174.1563,113684.6563,132473.8438,144738.1563,4181.3628,4545.3164,4208.6768,76870.6406,120015.5391,159939.1719,158.211029
2663.4114,2456.9707,3833.4583,3932.8340,144081.2188,157098.5625,172122.5938,130533.4453,3885.6719,3805.6301,4016.8989,4139.3643,123279.9219,113386.8203,132601.9688,143626.1875,4178.2114,3924.4075,4043.5645,77122.6328,119338.3750,160106.9063,158.215027
5116.2021,4533.0898,4406.6685,3991.1050,144122.5469,156827.8594,172129.9063,129486.9609,4119.8511,3781.6021,4814.8560,3983.7737,123393.1328,113090.9688,132712.1875,142471.3750,4213.6611,3027.8789,3889.0469,77397.6484,118754.3906,160270.3438,158.219025
4397.7280,3863.5659,4201.5913,3962.2266,144104.0625,156973.0313,172132.7500,130032.7891,3981.1584,3789.7158,4476.1826,4079.2827,123345.9531,113246.0234,132646.7656,143008.2031,4236.3037,3527.2393,3978.3870,77286.1172,119118.5625,160185.2031,158.223022
-134.2669,-446.1855,3040.7537,3885.0012,144059.3281,157305.1563,172127.6094,131334.7813,3669.3516,3809.4971,2778.6123,4278.9063,123217.0234,113605.5313,132502.6406,144378.8594,4221.7524,4436.9775,4171.8413,76966.1250,119887.8047,159982.2188,158.227020
-2197.4670,-2134.7034,2365.9543,3856.3687,144031.2344,157365.5781,172109.7969,131607.0938,3608.3538,3798.7236,1922.8311,4303.1577,123165.6641,113675.9141,132464.0313,144725.3438,4184.3135,4550.4351,4211.8062,76867.3984,120006.4688,159932.1719,158.231018
2738.8708,2545.1484,3838.3308,3930.3083,144068.1250,157088.9063,172113.8594,130517.7578,3882.1626,3796.0859,4011.7134,4138.0454,123268.4766,113377.0078,132589.2188,143615.6094,4180.6699,3917.3218,4047.6548,77117.6953,119330.7734,160097.9219,158.235016
5125.7241,4544.3555,4416.9058,4002.3479,144123.2656,156829.7344,172133.0625,129477.4141,4130.7139,3803.0820,4823.8638,3994.7261,123393.0234,113090.2344,132712.0469,142468.9688,4214.5776,2862.8560,3891.4163,77393.7813,118742.2969,160261.5781,158.239014
4417.8447,3905.0061,4208.7217,3965.0430,144096.2813,156963.3594,172127.7344,130006.7500,3984.1760,3794.0967,4483.3125,4080.4001,123338.8438,113235.2500,132638.7813,142987.2344,4237.5107,3395.3193,3978.1858,77283.2344,119101.1328,160177.3281,158.243011
-94.9055,-369.0497,3055.7068,3878.6980,144042.3281,157287.5625,172114.8438,131301.6563,3666.9377,3793.5603,2784.0215,4271.2393,123202.6094,113587.8047,132486.8750,144349.4375,4222.8257,4435.0332,4171.5728,76962.9297,119871.1719,159974.3750,158.247009
-2296.3511,-2234.3921,2334.3713,3862.8059,144027.1250,157362.6875,172108.5000,131593.6563,3594.8086,3810.7263,1876.5183,4309.5952,123160.9922,113670.9766,132459.3125,144717.8906,4184.6934,4552.2900,4211.9180,76862.1953,119994.3281,159922.7188,158.251007
2609.2085,2420.9844,3840.7002,3934.5327,144061.9063,157085.0000,172110.7500,130508.4375,3880.3745,3803.5068,4011.8250,4143.7451,123261.9531,113372.4688,132582.1406,143612.4844,4182.9722,3945.3286,4050.3818,77113.1563,119324.5859,160090.7656,158.255005
5112.4248,4533.3359,4408.0767,3994.7708,144104.9531,156812.9219,172119.2500,129451.5313,4121.8628,3783.4797,4812.7104,3987.6182,123377.3359,113074.3672,132695.0000,142447.7344,4217.9751,3077.0752,3893.0925,77390.4297,118732.6641,160255.7188,158.259003
4421.8008,3891.5503,4216.0527,3970.3179,144090.4688,156956.2969,172124.8281,129982.6797,3990.9709,3801.8975,4491.2925,4083.5742,123334.0156,113226.5313,132633.8906,142968.9063,4239.0308,3521.4724,3978.2974,77281.6250,119084.7891,160171.2344,158.263000
-94.9726,-399.0457,3094.0400,3884.5095,144037.0469,157281.2344,172111.9531,131279.9688,3679.9688,3805.8760,2820.8794,4275.5981,123197.3359,113579.2422,132481.4375,144333.3906,4222.4453,4432.6191,4170.0532,76957.6328,119852.6641,159963.7031,158.266998
-2239.1531,-2152.7412,2363.3169,3857.3074,144011.0156,157348.2500,172096.6406,131570.4063,3615.1262,3797.8965,1890.5328,4304.6104,123146.9063,113656.3125,132443.5625,144698.3281,4186.7275,4556.4253,4213.8403,76857.2344,119983.0625,159913.5781,158.270996
2674.3191,2505.5857,3843.4270,3935.6504,144052.4688,157078.7500,172105.1563,130496.2500,3882.9226,3804.6914,4006.1702,4145.3320,123252.9453,113364.8281,132572.4219,143605.9688,4183.8662,3933.0576,4052.5500,77107.2344,119316.4219,160081.5938,158.274994
5114.1685,4537.0464,4411.3403,3998.9058,144098.9844,156807.8750,172116.1875,129436.6484,4124.9473,3793.5156,4814.5879,3992.0437,123371.1172,113067.7500,132688.5938,142439.4531,4216.1646,3049.0684,3893.0032,77384.5078,118720.1484,160246.4375,158.278992
4424.1030,3909.0740,4211.0015,3964.7075,144074.8281,156939.7031,172113.0313,129949.7969,3985.8523,3787.2795,4485.3467,4076.6450,123320.9375,113209.6172,132620.0000,142940.6563,4239.0308,3531.6426,3977.1353,77278.7656,119068.6094,160165.1094,158.282990
-117.8160,-401.6385,3088.2288,3882.4978,144025.2031,157268.3438,172103.5313,131251.1094,3674.4478,3801.0481,2813.2129,4271.5522,123187.1641,113565.5469,132470.5313,144309.4531,4221.9985,4429.5791,4167.9521,76954.5938,119837.0625,159957.3281,158.286987
-2266.9810,-2187.8557,2348.5200,3861.5542,144005.2031,157343.4063,172093.7344,131556.5313,3596.1050,3806.3901,1867.5553,4309.2598,123140.6250,113649.9219,132436.8594,144690.0156,4186.6157,4558.7275,4213.4155,76851.1953,119971.4219,159903.3906,158.290985
2642.6243,2476.1038,3837.4814,3929.4141,144036.2031,157065.6875,172092.9844,130477.8125,3871.9255,3793.2920,3996.0671,4141.2861,123237.5938,113351.3281,132556.0781,143592.4219,4182.5029,3944.3005,4051.9019,77097.8281,119304.9766,160068.2188,158.294983
5109.2959,4533.4028,4407.3838,3997.0283,144086.6875,156797.2188,172107.5156,129415.6797,4122.9580,3790.4980,4809.8940,3990.3896,123359.4531,113055.6328,132676.3906,142423.8281,4215.3379,3002.4204,3891.7961,77376.6875,118704.9219,160234.4219,158.298981
-63.6131,-323.8991,3120.8174,3881.4919,144013.5781,157256.2344,172095.8906,131224.7813,3677.8230,3795.5049,2841.4207,4270.4346,123178.0234,113553.4063,132460.5156,144288.0625,4224.2114,4429.8027,4170.7012,76952.6484,119823.0938,159951.6719,158.302979
-2233.8557,-2181.8655,2275.8545,3860.7048,143994.2656,157334.3906,172086.7500,131538.1719,3616.3333,3805.6301,1778.6624,4308.5894,123131.3047,113640.4453,132427.0156,144677.4219,4186.7500,4560.9180,4214.6226,76846.4531,119961.2266,159896.4688,158.306976
2660.6174,2476.9309,3794.0298,3935.3374,144032.0469,157063.9375,172092.0938,130470.8359,3878.5415,3806.7253,3949.3296,4147.7905,123233.0078,113348.6875,132551.2031,143592.5000,4183.4419,3957.0857,4054.0251,77092.5234,119298.0703,160060.9219,158.310974
5104.5571,4531.2349,4406.7803,3997.1177,144076.4063,156788.1094,172101.2813,129397.7969,4122.1978,3787.2124,4806.9658,3990.4792,123350.3750,113046.4219,132666.5000,142410.9844,4219.0479,3070.7942,3895.4619,77373.4688,118694.8906,160227.4844,158.314972
4450.3662,3951.0283,4220.6128,3971.1226,144060.2031,156922.4219,172104.7656,129900.6875,3993.5859,3796.4883,4495.6509,4079.5508,123308.3750,113189.9688,132606.5469,142901.6563,4241.9585,3514.5435,3977.6492,77272.9531,119034.3906,160149.8906,158.318970
-59.8580,-301.8827,3131.2334,3888.1753,144009.9219,157251.4219,172094.8750,131205.3438,3684.0815,3808.5806,2845.6899,4275.3745,123174.0000,113546.7422,132456.1875,144273.2656,4225.7534,4429.4673,4171.0366,76949.7031,119807.5391,159943.8750,158.322968
-2298.6086,-2210.7886,2338.5066,3858.6038,143982.2813,157323.8906,172078.4688,131518.9375,3613.0923,3800.7798,1823.1870,4307.4268,123120.2422,113629.2031,132414.7500,144662.0938,4187.7778,4563.9131,4215.7622,76841.6953,119950.6328,159887.9688,158.326965
2583.9956,2440.2070,3813.2297,3934.2422,144020.8281,157056.5313,172084.8281,130457.3125,3877.2004,3804.4456,3961.1982,4148.7520,123222.5938,113339.9453,132540.0938,143584.2500,4183.5757,3956.5715,4055.3662,77086.1094,119289.6875,160051.5781,158.330963
5107.7983,4537.3145,4411.7427,4004.4490,144073.6250,156786.9375,172101.3125,129386.7109,4128.7915,3804.0432,4811.5703,3998.2576,123347.2500,113043.2500,132663.4063,142406.9531,4218.6455,3040.1501,3895.8865,77369.1328,118684.4297,160220.8125,158.335938
4462.0562,3950.1565,4221.1714,3968.3062,144046.8906,156908.3281,172095.0000,129870.5156,3991.7979,3791.1687,4497.9756,4075.9521,123296.5547,113174.6094,132594.1406,142876.1719,4239.9917,3525.7417,3975.1682,77268.1641,119015.8594,160141.3906,158.339935
-14.3722,-282.9507,3047.5933,3883.7942,143994.3750,157235.9844,172082.9688,131173.5313,3648.1621,3798.7012,2760.9768,4269.8091,123159.8750,113529.3750,132441.8125,144246.0156,4221.9985,4422.8291,4165.0464,76941.2969,119785.2109,159930.4375,158.343933
-2257.1462,-2200.0820,2218.7681,3863.6777,143976.3906,157319.1250,172075.2188,131504.8906,3555.8496,3812.2239,1693.9716,4312.0088,123113.3125,113622.3828,132407.7656,144654.0313,4184.8052,4563.1978,4212.2754,76832.1094,119934.6719,159874.2188,158.347931
2612.5166,2443.1350,3778.0259,3928.3413,144004.7969,157043.1094,172072.6875,130438.9844,3866.4717,3795.6389,3922.3733,4143.8569,123207.2578,113326.4922,132523.8750,143571.2188,4180.3574,3965.0876,4053.3545,77075.6484,119277.4688,160038.3125,158.351929
5096.5552,4527.0776,4403.2041,3996.8940,144055.7188,156771.1250,172087.3438,129360.9141,4121.0581,3789.7380,4800.8418,3990.6355,123330.8438,113026.7344,132646.5156,142386.1719,4214.4883,2980.6497,3892.3550,77359.3594,118668.3125,160207.8594,158.355927
4479.2002,3987.0818,4227.8101,3973.4470,144041.7031,156901.7813,172092.0625,129847.9609,3997.4082,3804.8479,4504.9268,4078.7908,123291.2344,113166.0547,132588.9375,142859.6563,4236.1694,3376.0967,3971.0779,77261.9063,118996.6406,160131.5625,158.359924
36.0087,-177.0035,3125.7573,3882.1626,143982.7500,157222.9219,172074.8750,131146.4844,3679.5217,3797.0249,2836.8386,4266.9702,123150.1250,113516.4141,132430.9063,144223.4688,4222.0210,4418.8950,4164.7109,76937.9688,119770.2109,159924.0000,158.363922
-2369.5530,-2291.2549,2307.9070,3856.7488,143959.7969,157304.6719,172063.0313,131481.4688,3610.0972,3801.4504,1771.2863,4306.3091,123098.7891,113607.4063,132392.1250,144634.3125,4184.0005,4564.4717,4212.4990,76824.6406,119921.1484,159862.8594,158.367920
2438.2175,2281.2861,3796.9800,3935.4492,144001.7344,157043.4375,172072.5313,130434.2266,3874.8088,3814.2803,3938.8020,4152.8647,123202.7422,113324.4141,132519.5469,143573.0781,4179.3066,3973.8494,4054.1370,77066.5547,119266.5156,160025.3906,158.371918
5091.5708,4523.7695,4403.3384,3998.9729,144047.4375,156763.7344,172082.5625,129345.6094,4121.8853,3794.3425,4799.9253,3992.9824,123322.8203,113018.7969,132637.8594,142376.5313,4216.2764,3111.2510,3894.4336,77354.0391,118656.7578,160199.1250,158.375916
4472.0474,3957.6892,4224.3232,3967.6804,144025.5781,156884.6563,172080.2188,129815.2578,3992.9824,3788.9783,4501.9316,4071.9065,123277.9766,113148.8828,132574.7031,142830.9219,4238.3374,3499.7690,3971.5471,77259.3594,118979.8984,160124.9844,158.379913
51.2973,-216.0296,3067.6428,3888.3318,143978.3750,157217.8750,172073.1719,131125.8281,3653.3926,3807.8655,2778.8135,4271.7090,123145.7266,113509.0625,132426.7500,144208.7813,4221.6855,4417.8892,4163.3252,76933.9844,119753.4453,159916.0938,158.383911
-2335.8689,-2247.8254,2287.4104,3859.7661,143952.7344,157298.6719,172059.1875,131466.5469,3550.2393,3805.2056,1738.1610,4309.4834,123091.8125,113600.3203,132384.7344,144625.1250,4184.6265,4567.0649,4213.1470,76820.5078,119911.5859,159856.2969,158.387909
2478.8530,2349.9954,3797.6506,3928.6096,143985.1250,157030.3438,172060.7969,130416.5938,3864.3035,3796.2649,3931.7612,4147.6792,123188.4141,113311.8281,132503.5938,143559.6563,4182.3911,3966.4063,4058.6519,77062.6406,119261.3906,160018.9063,158.391907
5091.9956,4528.4858,4405.6182,4003.1526,144041.8594,156760.1094,172080.3594,129332.9531,4125.9531,3802.0986,4801.2441,3998.1458,123317.2969,113013.4141,132631.9219,142369.6094,4216.8574,2973.8325,3896.7583,77349.3906,118645.9844,160190.5938,158.395905
4501.4175,3992.8708,4233.9121,3975.7939,144023.4844,156881.1875,172080.8594,129796.2188,4001.6550,3803.5740,4512.5938,4078.5449,123275.8359,113143.3672,132572.3438,142816.9375,4240.1929,3379.2483,3973.4023,77257.9297,118964.4922,160118.5313,158.399902
94.6596,-163.5924,3115.8108,3885.1130,143964.9688,157204.2813,172064.0781,131097.0938,3682.6956,3796.7119,2824.6123,4267.0371,123135.0625,113495.0703,132415.0000,144183.6406,4225.6641,4417.0400,4167.1475,76933.7422,119740.1875,159911.5313,158.403900
-2366.7590,-2255.9839,2264.9917,3864.4377,143947.4375,157295.4375,172057.5781,131454.3594,3601.6707,3810.7935,1710.6683,4315.2275,123087.4766,113595.9844,132379.8125,144618.0781,4189.9014,4574.3735,4219.0259,76819.9219,119905.3516,159852.2656,158.407898
2425.7454,2306.6328,3799.8857,3935.7844,143982.0156,157030.1250,172061.0625,130411.4531,3867.8574,3809.0276,3930.8000,4156.7090,123184.8828,113310.3516,132499.8594,143561.0625,4185.2744,3989.8979,4062.7871,77058.9297,119256.4063,160013.0938,158.411896
5079.1880,4517.1533,4397.7505,3996.7600,144024.8281,156745.2031,172067.9219,129309.3516,4118.8228,3787.6594,4791.3198,3992.1108,123302.1875,112998.1875,132616.0938,142350.7500,4217.1929,3140.5317,3897.1606,77342.9141,118633.6250,160181.4531,158.415894
86.3448,-141.7548,3172.2488,3888.5105,143957.5000,157195.7656,172059.7813,131074.6094,3686.5625,3805.5186,2903.9163,4268.7583,123127.9141,113484.9688,132407.6563,144166.3125,4223.8984,4415.5645,4164.6665,76927.9531,119722.4688,159902.0313,158.419891
-2372.5481,-2271.8313,2252.5864,3858.2686,143931.5781,157281.4688,172046.0938,131431.7344,3607.3254,3801.0928,1691.1106,4309.5054,123073.3750,113581.5469,132364.8281,144599.5938,4188.1582,4575.0220,4217.7964,76812.3516,119892.3359,159841.7656,158.423889
-2372.5481,-2271.8313,2252.5864,3858.2686,143931.5781,157281.4688,172046.0938,131431.7344,3607.3254,3801.0928,1691.1106,4309.5054,123073.3750,113581.5469,132364.8281,144599.5938,4188.1582,4575.0220,4217.7964,76812.3516,119892.3359,159841.7656,158.427887
2405.2935,2292.5291,3768.3923,3932.8787,143969.5938,157021.4531,172052.8594,130398.0859,3867.5447,3806.4573,3895.1267,4155.2339,123173.0625,113300.7422,132487.7500,143553.3750,4183.4639,3982.3208,4062.7424,77050.2188,119246.8438,160001.8906,158.431885
2405.2935,2292.5291,3768.3923,3932.8787,143969.5938,157021.4531,172052.8594,130398.0859,3867.5447,3806.4573,3895.1267,4155.2339,123173.0625,113300.7422,132487.7500,143553.3750,4183.4639,3982.3208,4062.7424,77050.2188,119246.8438,160001.8906,158.435883
5080.5962,4522.3838,4400.4995,4002.1021,144020.6250,156742.3438,172066.9375,129298.6016,4123.9189,3800.3328,4793.8008,3998.0789,123297.5625,112994.1016,132611.4688,142346.0781,4218.1987,3098.8010,3899.1499,77338.0625,118623.5234,160173.6875,158.439880
4505.3066,3999.0845,4231.0732,3972.4861,143999.5625,156856.1250,172064.7500,129741.1406,4001.3645,3793.4932,4510.7832,4072.6890,123255.1328,113116.3828,132550.8906,142770.7344,4241.8916,3510.3413,3973.2683,77250.7813,118931.4141,160104.2188,158.443878
4505.3066,3999.0845,4231.0732,3972.4861,143999.5625,156856.1250,172064.7500,129741.1406,4001.3645,3793.4932,4510.7832,4072.6890,123255.1328,113116.3828,132550.8906,142770.7344,4241.8916,3510.3413,3973.2683,77250.7813,118931.4141,160104.2188,158.447876
96.1572,-155.4564,3109.1724,3889.9856,143949.1563,157187.6094,172055.2813,131051.9141,3686.9871,3805.1831,2819.0688,4269.9204,123120.9141,113475.5078,132400.5156,144148.0469,4226.5806,4416.5034,4167.1025,76926.7422,119709.1875,159897.1719,158.451874
-2394.4082,-2232.6487,2221.1152,3864.0129,143926.5938,157277.8594,172044.3438,131419.8281,3599.1672,3812.0227,1651.6598,4315.5181,123067.6484,113576.2031,132359.0469,144592.7188,4188.6499,4577.8828,4219.1597,76807.2969,119881.5234,159833.4688,158.455872
-2394.4082,-2232.6487,2221.1152,3864.0129,143926.5938,157277.8594,172044.3438,131419.8281,3599.1672,3812.0227,1651.6598,4315.5181,123067.6484,113576.2031,132359.0469,144592.7188,4188.6499,4577.8828,4219.1597,76807.2969,119881.5234,159833.4688,158.459869
2379.0972,2326.9060,3772.5942,3931.5376,143957.7031,157013.2500,172045.4688,130385.5469,3861.4426,3801.2271,3895.8196,4155.7031,123161.7969,113291.8672,132475.9063,143545.6250,4185.1182,3997.8105,4066.2961,77045.0938,119240.4922,159994.5156,158.463867
5075.9917,4522.4951,4399.2480,4003.5996,144012.3906,156737.0000,172063.0469,129284.9453,4125.7070,3799.7070,4791.6104,4000.7385,123290.5625,112987.6641,132604.1719,142338.1563,4221.4399,3059.9761,3903.7544,77336.6953,118617.1953,160170.5313,158.467865
5075.9917,4522.4951,4399.2480,4003.5996,144012.3906,156737.0000,172063.0469,129284.9453,4125.7070,3799.7070,4791.6104,4000.7385,123290.5625,112987.6641,132604.1719,142338.1563,4221.4399,3059.9761,3903.7544,77336.6953,118617.1953,160170.5313,158.471863
4523.7021,4022.5986,4241.1763,3980.2419,143997.4375,156853.1563,172065.6250,129723.5547,4010.0146,3808.1560,4522.6743,4079.3496,123253.5234,113111.9141,132549.3281,142758.9844,4244.4395,3474.4221,3975.3469,77250.9141,118918.8984,160101.3750,158.475861
141.6207,-98.5041,3149.0479,3889.3374,143938.5625,157176.4375,172048.5469,131026.3203,3691.5022,3802.0540,2861.1350,4268.4678,123112.0859,113463.7109,132391.1250,144126.7969,4228.3018,4416.2129,4168.6001,76925.2266,119695.0859,159892.0156,158.479858
-2441.7493,-2359.8748,2199.0986,3863.3425,143917.0469,157270.8750,172038.8750,131404.2500,3614.7910,3812.2463,1624.9941,4315.9429,123059.1797,113567.8906,132350.0625,144581.8906,4189.9238,4581.7720,4221.5513,76803.1406,119872.1563,159826.1719,158.483856
-2441.7493,-2359.8748,2199.0986,3863.3425,143917.0469,157270.8750,172038.8750,131404.2500,3614.7910,3812.2463,1624.9941,4315.9429,123059.1797,113567.8906,132350.0625,144581.8906,4189.9238,4581.7720,4221.5513,76803.1406,119872.1563,159826.1719,158.487854
2314.2996,2227.3066,3726.4155,3935.5608,143952.6719,157011.5625,172043.6719,130379.3984,3867.7234,3816.4707,3853.1948,4161.2466,123155.6016,113288.1563,132469.7500,143545.8906,4182.4805,4004.9631,4065.7822,77035.8906,119230.4141,159982.6719,158.491852
5063.1392,4514.0015,4390.1060,3997.2070,143995.4375,156722.1406,172050.3281,129262.4141,4118.5547,3791.3921,4780.9707,3994.7708,123274.4063,112972.0391,132587.5938,142320.4375,4216.4775,3153.8086,3899.7310,77325.5859,118601.0781,160156.8125,158.495850
4540.8462,4036.0098,4234.0459,3974.5872,143981.1719,156837.2969,172053.3281,129693.2188,4006.0583,3798.9470,4515.7900,4072.4653,123238.7734,113094.4141,132534.3906,142733.0469,4239.0752,3494.9409,3970.2285,77241.9922,118898.1797,160089.1563,158.499847
240.1471,-21.1000,3155.7310,3893.4502,143932.0156,157169.6094,172044.8750,131005.4219,3696.0396,3815.2861,2871.8638,4271.4854,123105.1797,113454.3672,132384.4219,144111.3750,4223.9429,4409.9097,4164.0181,76917.0234,119675.3672,159880.2344,158.503845
240.1471,-21.1000,3155.7310,3893.4502,143932.0156,157169.6094,172044.8750,131005.4219,3696.0396,3815.2861,2871.8638,4271.4854,123105.1797,113454.3672,132384.4219,144111.3750,4223.9429,4409.9097,4164.0181,76917.0234,119675.3672,159880.2344,158.507843
-2404.5334,-2298.5193,2256.3862,3856.4358,143899.9688,157255.6094,172026.0000,131381.5000,3607.1021,3803.0820,1671.1057,4310.5562,123043.3750,113552.1328,132333.3125,144563.3281,4185.6768,4580.0732,4218.6235,76793.0625,119857.1094,159813.2969,158.511841
5060.4126,4512.9287,4392.2964,4002.5044,143991.4688,156720.4531,172049.3750,129253.3828,4124.3662,3807.1277,4783.6753,4001.4763,123269.7578,112968.1250,132583.1875,142317.9375,4214.5552,3103.6289,3899.7981,77317.8984,118589.4766,160146.7344,158.515839
190.8392,-36.0534,3079.1316,3886.1189,143915.5313,157153.4063,172032.7813,130976.1641,3663.2495,3800.3999,2799.8018,4263.8857,123090.5859,113437.0000,132369.0313,144085.0156,4222.8701,4408.2109,4163.2583,76910.0234,119657.1953,159869.0156,158.519836
2238.9966,2162.0618,3705.1367,3928.7212,143927.1406,156993.3906,172026.6406,130354.8359,3855.0947,3808.1113,3828.0938,4159.5703,123131.2422,113268.3984,132444.0000,143530.7656,4180.5586,4018.5083,4068.5537,77018.0938,119212.5313,159960.6719,158.523834
4557.3862,4053.0193,4238.8071,3975.0564,143962.6406,156817.3906,172041.5000,129645.4531,4009.5229,3805.5186,4524.8198,4070.9902,123222.1016,113071.3672,132517.3906,142694.8438,4234.2251,3478.1772,3966.2498,77229.5469,118862.0781,160071.0313,158.527832
296.6747,42.6695,3149.1594,3886.3647,143905.9375,157142.9063,172026.5000,130951.8438,3692.3069,3805.2278,2875.2837,4263.1704,123082.4688,113425.4844,132360.5000,144065.7500,4219.8975,4401.1699,4160.2852,76904.2578,119640.0078,159861.4844,158.531830
2208.1511,2135.2397,3724.4487,3915.5562,143877.0313,156951.1094,171994.8750,130320.9063,3843.7400,3801.4504,3830.0608,4149.9141,123107.8594,113248.3750,132420.1563,143503.9688,4153.2671,3994.7261,4040.9941,77003.2734,119198.7891,159944.9219,158.535828
5038.7759,4494.8237,4380.1147,3982.4102,143912.0156,156651.7656,171999.4844,129188.3359,4100.2261,3788.2183,4760.9438,3984.8242,123230.6641,112931.3828,132542.7500,142264.4219,4179.3735,3088.2063,3865.0859,77297.7813,118562.8594,160123.9375,158.539825
4520.8862,4023.9622,4230.6709,3952.5483,143889.8594,156751.7969,171995.5938,129583.5625,3986.0088,3777.2883,4509.0845,4050.6724,123191.5000,113039.3828,132485.6719,142638.2500,4203.4019,3406.2939,3931.5601,77221.6328,118844.3516,160061.6406,158.543823
165.6935,-34.8687,3184.0283,3873.4678,143841.9375,157086.9531,171989.1719,130899.3203,3659.5615,3794.0745,2867.6841,4251.3687,123060.0078,113401.9766,132337.5625,144019.5781,4191.4883,4377.7676,4126.5117,76899.0703,119625.3906,159854.8125,158.547821
-2472.0359,-2345.4355,2222.3892,3841.4377,143814.9688,157184.6875,171975.7500,131305.3438,3521.5396,3794.5662,1545.8912,4299.9165,123001.0000,113511.2031,132289.1563,144502.6094,4153.4233,4561.9907,4179.9326,76769.0938,119821.2813,159783.8281,158.551819
5034.4619,4492.4097,4379.6675,3983.6843,143900.7500,156645.8906,171995.0781,129175.6641,4101.9248,3787.8381,4760.5415,3987.0593,123223.3281,112924.3359,132534.9375,142256.3906,4183.5537,2992.2949,3870.7410,77293.8750,118554.8984,160118.2813,158.555817
4548.1328,4048.5266,4240.5503,3962.1147,143886.7969,156749.8281,171997.7031,129568.0313,3997.4753,3793.1133,4520.9082,4058.4285,123191.1016,113035.4688,132485.0625,142627.2656,4208.6992,3391.4971,3937.1033,77220.7578,118831.1641,160057.6250,158.559814
237.8896,7.8008,3141.9846,3871.4338,143828.0781,157075.0938,171981.4219,130874.6484,3669.1729,3787.3018,2830.8259,4248.7090,123050.5313,113389.1250,132327.2188,143998.4688,4194.7739,4378.3936,4129.4399,76895.5625,119611.0234,159848.5625,158.563812
-2463.8550,-2319.1052,2089.5305,3843.6729,143805.2656,157179.0781,171971.7656,131291.7344,3558.1516,3795.5720,1419.1122,4302.5317,122994.4688,113504.1250,132282.0469,144493.5469,4157.1782,4567.4224,4183.5981,76764.9375,119812.5000,159777.5938,158.567810
2164.9451,2132.2000,3695.9949,3915.3103,143839.9688,156927.9219,171977.2656,130296.0469,3836.3191,3801.0706,3780.7751,4152.6411,123089.1094,113233.6641,132399.8594,143489.6719,4151.5903,4004.8960,4041.9329,76993.0625,119189.6875,159933.3438,158.571808
5027.8237,4487.9170,4377.6113,3983.3936,143888.7656,156637.7813,171988.9844,129160.7109,4102.0142,3783.7925,4758.0825,3987.1265,123215.1953,112916.0000,132525.7031,142246.1094,4187.8228,3108.7700,3875.9934,77290.9688,118548.3047,160114.2969,158.575806
4548.3564,4050.4490,4242.8975,3962.3831,143875.0156,156739.7656,171991.2344,129543.7969,3999.0176,3790.7664,4525.6914,4057.2439,123183.0781,113023.9609,132476.1875,142607.2813,4210.6440,3429.6069,3938.2878,77217.2969,118816.0547,160051.3438,158.579803
216.6107,10.1924,3230.0281,3875.9265,143820.6250,157067.9531,171978.2969,130853.6328,3676.9512,3798.3660,2928.3914,4251.8159,123044.8750,113380.1797,132320.9375,143981.4219,4194.9531,4376.6504,4130.0435,76890.2422,119593.3828,159839.1094,158.583801
-2487.2126,-2365.0603,2190.8955,3843.1140,143793.7500,157170.8438,171965.8438,131275.9531,3570.6462,3793.3367,1518.4210,4303.8506,122985.7344,113495.1328,132272.0469,144480.6719,4161.4253,4573.8818,4192.4497,76762.0156,119804.4766,159771.2969,158.587799
2135.1057,2092.5256,3702.2310,3915.7795,143829.6250,156922.9375,171972.5781,130287.1094,3838.0403,3799.8635,3786.6760,4156.5078,123081.0156,113227.6094,132390.9688,143485.2500,4155.7031,4006.4160,4048.3701,76989.4219,119185.3516,159927.1563,158.591797
5025.6777,4488.6772,4378.4609,3986.6570,143880.3594,156632.4844,171985.2188,129148.0156,4104.1826,3793.6943,4759.3789,3991.6414,123207.7031,112908.6953,132517.9375,142238.8594,4186.7720,3061.0713,3875.9487,77283.3203,118535.6094,160103.6875,158.595795
4558.5488,4061.3342,4240.5283,3960.0808,143861.2813,156727.0469,171982.6719,129517.3359,3998.4363,3785.2454,4524.2163,4054.6287,123172.4766,113010.2344,132465.1563,142584.9219,4211.1802,3423.2366,3938.5784,77213.7188,118800.3672,160044.7813,158.599792
269.4279,46.2458,3108.1887,3880.1287,143813.1094,157062.2188,171975.9531,130833.4922,3660.6121,3799.0142,2809.9048,4255.2803,123040.3359,113372.5625,132316.4688,143965.9531,4199.9595,4378.8853,4134.2231,76891.2969,119582.6328,159837.3125,158.603790
-2482.0718,-2321.5190,2086.9824,3851.2725,143789.2656,157168.8281,171965.6719,131265.7500,3553.3015,3809.7654,1421.9733,4311.5171,122981.5313,113490.5547,132267.8438,144475.4063,4162.3643,4576.2065,4192.8071,76755.6172,119791.8906,159761.5000,158.607788
2112.9998,2105.8472,3686.3389,3913.3210,143815.1406,156912.9063,171963.6563,130274.1641,3835.0898,3795.9297,3768.0122,4155.3901,123068.2109,113216.7891,132377.3125,143476.5625,4155.9937,4021.1011,4050.6724,76980.2109,119175.2031,159915.4219,158.611786
5020.6934,4485.8384,4377.3433,3987.4617,143869.9688,156625.9063,171980.2188,129134.3594,4106.1045,3792.2639,4757.9932,3992.8708,123199.4141,112900.7578,132509.2656,142229.8594,4190.3262,2986.5730,3880.9333,77278.6953,118526.2656,160096.4375,158.615784
4580.4980,4083.1719,4253.1792,3971.0779,143860.5781,156726.2969,171986.0000,129502.2266,4010.4392,3805.2502,4539.4829,4063.3010,123172.9922,113007.1953,132465.7344,142575.0469,4214.9355,3257.7444,3942.0876,77212.4453,118786.6016,160040.4219,158.619781
319.8758,99.0406,3192.4773,3876.9993,143798.1094,157047.7344,171966.2188,130806.0000,3684.2156,3793.8508,2901.5022,4250.8770,123028.8438,113357.7813,132303.8594,143942.2188,4199.9595,4374.3926,4133.6421,76886.3359,119566.3594,159829.5781,158.623779
-2553.2620,-2455.0261,2147.1084,3840.1860,143767.9375,157151.4219,171949.9063,131239.7813,3580.2354,3794.7227,1487.2404,4301.6377,122964.0469,113472.6016,132249.5625,144454.0156,4157.1338,4572.6304,4186.1685,76745.0234,119776.4219,159749.1875,158.627777
1954.8387,1920.0818,3666.4458,3912.3152,143803.4688,156905.9063,171956.2344,130262.2031,3833.5698,3804.3562,3753.5955,4156.7090,123057.1484,113207.4688,132366.5156,143471.0781,4148.4834,4019.2234,4044.7493,76966.0156,119159.8750,159899.1406,158.631775
5005.2930,4473.8135,4368.0225,3980.4880,143851.0781,156610.2656,171966.5625,129111.9219,4097.4771,3783.0103,4748.5161,3986.8582,123182.8750,112884.3750,132492.1094,142212.0781,4185.0063,3123.4104,3877.4241,77266.6953,118509.4609,160081.5938,158.635773
402.7561,158.8762,3148.2432,3882.5425,143791.5156,157041.8281,171963.2500,130784.6094,3672.8386,3807.4854,2865.2476,4254.7886,123022.8359,113348.5547,132298.2031,143925.9375,4196.4951,4369.9673,4130.5127,76878.6875,119545.1953,159817.2656,158.639771
-2502.9929,-2393.1340,2169.6167,3844.5222,143760.5781,157146.6875,171947.2969,131227.1094,3560.0068,3799.7517,1504.8982,4306.7563,122958.2578,113466.4844,132243.0156,144445.4688,4160.6875,4577.7935,4194.9976,76742.5859,119768.3750,159743.5313,158.643768
2023.9280,1996.8378,3677.4429,3907.9119,143788.1563,156896.0313,171946.8750,130248.3750,3829.7478,3791.7051,3755.1824,4154.3174,123044.9219,113197.2969,132353.1875,143461.2188,4151.8589,4024.7219,4051.3877,76962.7109,119155.8281,159893.5781,158.647766
5013.9878,4482.9326,4375.6221,3990.4121,143849.9219,156612.5938,171969.6719,129105.8828,4108.5859,3800.8247,4756.8760,3997.7434,123181.8672,112883.8828,132491.0938,142211.4688,4188.0908,3021.6653,3883.1238,77264.7031,118501.9922,160076.5469,158.651764
4600.1899,4105.0093,4249.4912,3965.1545,143831.5469,156698.6250,171966.6250,129446.8359,4007.6899,3794.8792,4540.2202,4055.9697,123148.6094,112976.4219,132440.0781,142526.9375,4212.2979,3267.1321,3939.4724,77199.9297,118748.4453,160019.5469,158.655762
423.2750,209.2347,3176.4287,3875.7700,143773.8750,157024.9375,171951.5469,130754.7031,3679.7451,3789.7605,2902.8433,4247.4570,123009.4922,113331.8125,132283.4375,143898.4688,4200.4736,4368.7153,4134.3799,76877.4609,119531.7188,159812.6875,158.659760
-2570.8081,-2469.5547,2100.3040,3848.9480,143753.9375,157143.0000,171945.5781,131214.7188,3552.7874,3806.3008,1446.7614,4311.3833,122953.2969,113461.1406,132237.7656,144438.0469,4163.5264,4581.5708,4199.7363,76738.6953,119758.3203,159736.8906,158.663757
1880.0051,1855.2170,3662.2214,3915.3325,143784.3125,156896.1406,171947.6875,130244.8359,3829.2114,3805.5632,3745.7947,4163.4370,123041.7422,113196.0000,132349.5938,143463.2344,4156.0161,4039.5635,4056.9531,76958.2344,119150.1719,159887.1563,158.667755
4995.8604,4467.6440,4365.9214,3982.4995,143830.8594,156597.0156,171956.4063,129083.6875,4100.1143,3783.4351,4746.5044,3990.3228,123166.7344,112868.7734,132474.9688,142193.7188,4190.1475,3186.9563,3884.4648,77258.6250,118491.5313,160069.2813,158.671753
4600.6147,4093.7888,4252.0391,3966.3840,143821.2656,156689.1875,171961.0313,129422.8125,4010.9534,3795.0579,4544.3999,4055.6121,123141.5469,112966.0703,132432.8281,142507.9219,4213.5049,3418.6099,3940.2549,77197.2656,118733.0859,160014.2969,158.675751
438.2059,197.5000,3198.2439,3882.3191,143768.4531,157020.0156,171950.2500,130736.0859,3691.5693,3801.7410,2928.9277,4253.2910,123005.3125,113324.8359,132279.1563,143884.1250,4202.5303,4369.8330,4136.7490,76874.4375,119516.3828,159805.5781,158.679749
-2517.7451,-2399.6162,2116.2854,3843.5610,143737.1563,157129.2500,171934.2344,131193.0938,3574.5132,3794.1638,1456.9761,4306.9351,122939.1250,113446.7422,132222.5000,144418.6563,4165.2700,4584.8789,4203.1558,76733.5156,119747.0547,159728.0625,158.683746
1958.3480,1948.5133,3665.3730,3913.0750,143770.6563,156887.1719,171939.2500,130231.1641,3830.8877,3801.6963,3740.3630,4162.0957,123030.0078,113186.1641,132337.3281,143454.1094,4155.3901,4033.3274,4058.2944,76950.8203,119140.9375,159876.8438,158.687744
4997.4922,4470.9746,4367.0391,3985.9641,143823.0313,156591.9063,171952.9063,129071.2188,4102.7070,3793.1133,4747.4878,3994.5249,123159.8984,112862.4219,132468.0313,142187.0000,4187.8896,3149.6736,3884.9343,77251.9844,118479.6875,160059.3594,158.691742
4602.1792,4104.7412,4250.2065,3964.2830,143808.0156,156676.7969,171952.9688,129396.5234,4009.7463,3786.8101,4543.1035,4052.6169,123131.8672,112953.1484,132422.4375,142485.7031,4215.5835,3417.4028,3942.2664,77195.8594,118719.5234,160009.5625,158.695740
384.1594,159.0550,3207.3635,3881.8943,143757.2344,157009.5781,171943.8281,130710.6250,3691.5693,3799.4834,2941.0647,4251.2344,122997.4688,113313.5078,132270.7813,143863.5313,4203.2676,4367.1953,4136.7266,76871.8281,119501.0938,159799.9531,158.699738
-2547.3611,-2441.8608,2120.8228,3843.9858,143726.4688,157120.7500,171927.9063,131176.2344,3554.6201,3799.6624,1461.4688,4307.6055,122929.6719,113436.9531,132212.6406,144407.3281,4161.7607,4582.6440,4199.4902,76723.4141,119730.6719,159714.3594,158.703735
1927.4802,1914.4492,3660.5002,3905.1848,143751.9688,156872.8906,171926.1406,130213.0547,3817.0295,3789.8723,3731.9365,4156.2622,123013.3594,113171.0547,132319.4844,143440.1250,4152.6855,4038.6919,4057.0203,76939.0391,119127.4141,159861.8438,158.707733
4990.9434,4465.8784,4363.8203,3983.8855,143810.0000,156582.4531,171945.1719,129053.8281,4101.4106,3789.6934,4744.0684,3993.2285,123148.9219,112851.4297,132456.3906,142174.4375,4188.6719,3093.7942,3885.7612,77244.5391,118466.7891,160049.0625,158.711731
4618.4292,4125.5283,4257.8062,3969.2002,143801.6250,156670.3750,171950.5625,129376.3203,4015.9155,3798.3660,4553.6538,4055.9697,123126.4766,112944.7891,132416.9531,142470.4375,4215.6060,3399.1191,3941.7747,77191.1406,118702.5781,160001.5000,158.715729
444.0844,251.3901,3228.8657,3879.4133,143743.3906,156996.2500,171934.9375,130683.7813,3695.8831,3793.4038,2974.1453,4247.5913,122986.4219,113299.2422,132259.0625,143840.2500,4203.9829,4365.1836,4136.5923,76868.1641,119485.4688,159792.8594,158.719727
-2513.4758,-2411.6191,2042.2341,3844.8352,143716.3438,157113.6875,171922.8125,131160.4375,3590.2041,3800.4893,1384.4222,4308.6563,122922.0469,113428.8203,132204.3750,144395.7344,4164.8228,4586.8682,4203.4912,76721.3281,119722.9766,159710.2656,158.723724
-2513.4758,-2411.6191,2042.2341,3844.8352,143716.3438,157113.6875,171922.8125,131160.4375,3590.2041,3800.4893,1384.4222,4308.6563,122922.0469,113428.8203,132204.3750,144395.7344,4164.8228,4586.8682,4203.4912,76721.3281,119722.9766,159710.2656,158.727722
1958.2587,1929.0226,3603.4141,3912.0916,143747.5000,156872.2188,171926.0781,130208.6953,3828.3621,3803.8420,3673.0845,4164.1523,123009.6016,113169.3125,132315.4844,143441.7813,4154.8091,4049.4431,4060.9988,76934.2109,119121.6719,159855.1406,158.731720
4981.6226,4458.0776,4356.8242,3979.1692,143793.7031,156569.3438,171934.0781,129034.1563,4095.8230,3781.8257,4736.8931,3988.8921,123134.6641,112837.6172,132441.4531,142159.1250,4187.1299,3167.8679,3885.1355,77235.1328,118452.3047,160036.2344,158.735718
4619.5020,4129.3506,4253.7603,3964.6628,143785.2500,156655.0781,171939.0000,129346.1641,4012.8979,3790.8110,4550.4351,4049.3760,123112.4688,112927.5781,132402.6563,142444.1719,4212.4321,3405.2659,3937.6172,77182.1563,118680.0000,159987.9844,158.739716
438.3401,249.0655,3247.9094,3881.5144,143733.7813,156986.7500,171929.0469,130659.7109,3695.6819,3803.7751,2996.0725,4247.4795,122977.2578,113287.2188,132249.9531,143821.0469,4199.1997,4357.7852,4131.3398,76858.0391,119462.2266,159778.3125,158.743713
-2560.7947,-2432.1379,2094.8501,3840.0520,143700.4844,157100.3438,171911.9844,131138.6250,3575.9661,3792.7109,1438.7371,4304.5884,122908.7734,113414.9375,132190.2500,144378.1094,4163.1016,4586.0859,4202.0605,76713.1484,119708.5625,159698.9375,158.747711
1877.3677,1898.9147,3629.1409,3909.7671,143734.3438,156864.1719,171918.1250,130195.3750,3825.4785,3799.2153,3697.3359,4163.8618,122998.6094,113160.2188,132304.0781,143433.7500,4155.2114,4051.4995,4062.8540,76927.4844,119113.5781,159846.2344,158.751709
4987.1880,4467.1079,4365.4297,3990.0098,143793.5938,156572.2656,171937.7188,129028.7969,4106.8647,3802.6350,4745.9458,4000.3809,123135.0625,112838.5547,132442.1563,142160.7813,4190.5942,3118.0012,3889.4939,77233.4141,118445.7109,160032.6094,158.755707
4638.2998,4142.0908,4256.8447,3965.4453,143775.0938,156645.0938,171933.4844,129322.1797,4014.9766,3788.5313,4556.6040,4050.0688,123105.1563,112916.9219,132394.6719,142424.3438,4215.7402,3386.7361,3940.6348,77181.4844,118666.5469,159983.6563,158.759705
518.0911,310.7339,3171.2429,3881.6931,143722.2500,156976.1563,171922.7344,130634.1875,3672.5032,3795.8401,2930.9395,4247.4570,122969.2813,113275.5781,132241.3125,143798.9531,4203.9385,4358.3887,4135.1172,76857.7188,119448.4297,159773.4219,158.763702
-2523.4224,-2420.7163,1983.5608,3851.9653,143700.7969,157103.0781,171916.1719,131132.3125,3532.0225,3811.8218,1332.7898,4316.7925,122909.2656,113415.1406,132190.7344,144377.1250,4167.7729,4591.9644,4206.9780,76710.7578,119699.4688,159692.2500,158.767700
1926.6980,1914.8962,3593.1099,3911.0188,143724.6406,156858.5313,171913.6094,130186.3438,3822.2600,3799.2153,3658.8687,4167.4380,122990.4922,113153.9141,132294.9375,143429.1094,4159.3467,4064.3740,4068.3079,76923.5234,119108.2188,159839.4375,158.771698
4977.7334,4458.5249,4358.2769,3984.0864,143776.8906,156558.9688,171926.5469,129008.5391,4100.4722,3789.2688,4738.1001,3995.5083,123121.3203,112824.8984,132427.4375,142144.6563,4191.2202,3104.6125,3891.1033,77227.1484,118434.5781,160023.9375,158.775696
4651.3530,4164.5322,4266.1655,3973.4470,143771.8750,156642.2031,171933.8594,129304.8828,4023.9622,3805.9878,4567.3774,4055.7239,123102.9688,112911.6016,132392.7813,142412.9688,4214.7788,3244.6016,3939.6736,77177.1719,118650.0547,159976.4375,158.779694
551.8198,389.0992,3247.8872,3883.5930,143713.1719,156966.9688,171917.8750,130611.3203,3703.6392,3800.7351,3012.2104,4247.1221,122962.4375,113265.6094,132233.8594,143780.5625,4204.7876,4351.7729,4136.2124,76854.6406,119433.2578,159767.4844,158.783691
-2576.5750,-2464.9055,2101.8687,3842.9128,143681.0938,157086.3750,171902.0313,131107.2188,3590.9417,3796.5107,1450.5164,4308.5220,122892.7500,113397.9766,132172.7656,144354.5313,4167.5049,4592.6128,4208.0732,76703.6484,119686.1641,159682.3750,158.787689
1753.5166,1750.1639,3616.4897,3913.2539,143715.8281,156854.2969,171908.9531,130177.4063,3827.4678,3809.2065,3681.3323,4170.9473,122981.8672,113147.4531,132286.2969,143425.7344,4156.2397,4066.2068,4066.8550,76912.4375,119095.7656,159825.9375,158.791687
4642.9937,4144.4604,4259.9741,3965.2888,143752.8438,156623.8125,171920.3125,129272.6719,4017.5024,3785.9832,4563.2427,4047.4314,123088.4141,112893.7813,132376.9531,142384.1563,4216.8799,3399.5437,3940.7019,77174.0000,118634.4297,159970.1094,158.795685
563.3087,362.4782,3207.0952,3888.3093,143706.6875,156961.3438,171915.5938,130591.0938,3683.5227,3806.4795,2980.2698,4251.8379,122958.0391,113258.2500,132229.4688,143765.5625,4206.8442,4355.4829,4136.8833,76852.9375,119419.5078,159762.6406,158.799683
-2567.6343,-2457.7754,2068.2961,3849.4397,143676.5313,157083.9844,171901.6250,131096.3594,3528.5134,3806.5913,1419.8051,4315.0713,122888.9453,113393.8828,132168.9063,144348.8281,4169.4497,4595.7197,4209.7051,76699.5859,119675.8594,159675.1406,158.803680
1772.5156,1782.8422,3614.8582,3907.3752,143699.5313,156842.3438,171898.3906,130161.3750,3816.6943,3794.8120,3676.9512,4166.5664,122968.3203,113135.4063,132271.3438,143413.1719,4158.8770,4064.3516,4071.0571,76906.9844,119088.4375,159817.3750,158.807678
4966.4902,4452.0874,4357.4727,3987.1711,143758.2344,156546.3750,171917.0469,128981.6328,4102.9082,3796.0859,4737.1841,4000.0903,123105.3125,112809.8750,132410.4531,142128.0156,4192.0693,3149.5618,3895.1489,77215.0391,118412.7422,160005.8438,158.811676
4665.3228,4171.8857,4268.1997,3972.0391,143748.7813,156619.5469,171920.1563,129254.9063,4024.4985,3797.8071,4573.6587,4053.0640,123085.3750,112887.6797,132373.6250,142370.9063,4218.8247,3342.2786,3943.2500,77172.5938,118620.6563,159964.7188,158.815674
597.1045,423.1409,3259.5325,3882.3413,143690.2188,156944.9531,171904.4375,130560.8047,3700.1748,3792.9568,3038.8984,4244.8418,122945.4766,113241.9375,132215.6406,143738.4375,4208.2520,4349.0903,4137.7773,76850.0781,119403.8438,159756.1563,158.819672
-2592.9363,-2474.3157,2035.3721,3848.8362,143665.8125,157076.0000,171895.9219,131079.7188,3562.2644,3803.7080,1390.5690,4315.4063,122881.3047,113385.5000,132160.3594,144337.0156,4171.4834,4598.7373,4212.2085,76696.5469,119667.1641,159669.7969,158.823669
-2592.9363,-2474.3157,2035.3721,3848.8362,143665.8125,157076.0000,171895.9219,131079.7188,3562.2644,3803.7080,1390.5690,4315.4063,122881.3047,113385.5000,132160.3594,144337.0156,4171.4834,4598.7373,4212.2085,76696.5469,119667.1641,159669.7969,158.827667
1709.7073,1715.9434,3603.7493,3911.6892,143693.3438,156839.9688,171896.7344,130155.0547,3815.5098,3804.8479,3665.9541,4172.6904,122963.4219,113132.2813,132266.0781,143413.3750,4159.7715,4078.8804,4073.1360,76901.3516,119081.8672,159810.2344,158.831665
1709.7073,1715.9434,3603.7493,3911.6892,143693.3438,156839.9688,171896.7344,130155.0547,3815.5098,3804.8479,3665.9541,4172.6904,122963.4219,113132.2813,132266.0781,143413.3750,4159.7715,4078.8804,4073.1360,76901.3516,119081.8672,159810.2344,158.835663
4952.0737,4437.7822,4350.1411,3981.8291,143741.7813,156533.1250,171906.0156,128961.5781,4097.2534,3785.3350,4729.5620,3995.4412,123091.7266,112796.5313,132396.1094,142112.8594,4192.5610,3250.6587,3895.3948,77207.4609,118399.8438,159995.4844,158.839661
4952.0737,4437.7822,4350.1411,3981.8291,143741.7813,156533.1250,171906.0156,128961.5781,4097.2534,3785.3350,4729.5620,3995.4412,123091.7266,112796.5313,132396.1094,142112.8594,4192.5610,3250.6587,3895.3948,77207.4609,118399.8438,159995.4844,158.843658
4659.3999,4162.0732,4266.7241,3969.4238,143734.9063,156606.4375,171910.8594,129227.8984,4024.0737,3793.7837,4574.1504,4049.0408,123073.7500,112873.0859,132361.7344,142348.4219,4217.4834,3412.4631,3940.3889,77165.1719,118600.4297,159953.3906,158.847656
4659.3999,4162.0732,4266.7241,3969.4238,143734.9063,156606.4375,171910.8594,129227.8984,4024.0737,3793.7837,4574.1504,4049.0408,123073.7500,112873.0859,132361.7344,142348.4219,4217.4834,3412.4631,3940.3889,77165.1719,118600.4297,159953.3906,158.851654
594.5564,420.5928,3280.6548,3885.3142,143681.5625,156936.3281,171899.7031,130538.2266,3707.2825,3802.0315,3083.3784,4246.0713,122937.6719,113231.2031,132207.7969,143720.5469,4205.8828,4347.6377,4135.1621,76842.9453,119384.2188,159745.2969,158.855652
594.5564,420.5928,3280.6548,3885.3142,143681.5625,156936.3281,171899.7031,130538.2266,3707.2825,3802.0315,3083.3784,4246.0713,122937.6719,113231.2031,132207.7969,143720.5469,4205.8828,4347.6377,4135.1621,76842.9453,119384.2188,159745.2969,158.859650
-2570.5400,-2443.6267,2048.9397,3842.1306,143648.4844,157061.0313,171883.5156,131056.5625,3583.1858,3795.3708,1410.3280,4309.4609,122866.1484,113369.6328,132144.2031,144317.3438,4169.0474,4597.5527,4210.9790,76687.9141,119652.6406,159658.3281,158.863647
-2570.5400,-2443.6267,2048.9397,3842.1306,143648.4844,157061.0313,171883.5156,131056.5625,3583.1858,3795.3708,1410.3280,4309.4609,122866.1484,113369.6328,132144.2031,144317.3438,4169.0474,4597.5527,4210.9790,76687.9141,119652.6406,159658.3281,158.867645
1720.0114,1742.8549,3584.9067,3907.4424,143678.4844,156829.8750,171886.7813,130141.0391,3817.5212,3799.8188,3642.0154,4170.3882,122950.1484,113120.8984,132252.2031,143404.1094,4157.1782,4072.8901,4072.5547,76891.5391,119071.5391,159798.1094,158.871643
4953.1016,4443.0347,4351.6831,3985.8301,143735.1406,156529.4219,171903.5313,128950.9219,4100.3828,3796.4214,4731.3945,4000.4480,123085.6406,112791.0078,132389.8906,142108.2344,4191.1309,3191.7173,3895.8418,77201.4453,118389.7891,159987.4063,158.875641
4953.1016,4443.0347,4351.6831,3985.8301,143735.1406,156529.4219,171903.5313,128950.9219,4100.3828,3796.4214,4731.3945,4000.4480,123085.6406,112791.0078,132389.8906,142108.2344,4191.1309,3191.7173,3895.8418,77201.4453,118389.7891,159987.4063,158.879639
4670.9331,4172.0869,4263.7964,3966.3840,143721.1563,156593.2500,171901.9844,129200.3906,4022.4421,3786.8101,4572.6304,4045.4868,123063.1328,112858.7813,132350.4219,142325.1094,4217.3716,3401.7566,3939.9419,77162.1094,118584.9844,159947.3125,158.883636
4670.9331,4172.0869,4263.7964,3966.3840,143721.1563,156593.2500,171901.9844,129200.3906,4022.4421,3786.8101,4572.6304,4045.4868,123063.1328,112858.7813,132350.4219,142325.1094,4217.3716,3401.7566,3939.9419,77162.1094,118584.9844,159947.3125,158.887634
606.4252,395.0894,3228.6870,3881.8274,143667.9063,156923.6406,171890.6250,130511.0078,3705.2039,3796.0637,3019.5417,4242.1152,122926.8359,113216.8594,132196.1719,143697.2969,4204.8325,4343.9048,4132.9043,76838.1875,119367.1172,159736.8750,158.891632
606.4252,395.0894,3228.6870,3881.8274,143667.9063,156923.6406,171890.6250,130511.0078,3705.2039,3796.0637,3019.5417,4242.1152,122926.8359,113216.8594,132196.1719,143697.2969,4204.8325,4343.9048,4132.9043,76838.1875,119367.1172,159736.8750,158.895630
-2594.7915,-2476.2603,2039.1719,3843.5610,143639.4375,157054.0781,171878.6094,131041.3438,3569.3276,3802.7693,1404.8741,4311.4502,122857.6797,113360.8047,132135.2656,144306.8594,4166.4321,4596.3008,4208.0508,76679.2188,119638.0000,159646.4531,158.899628
1695.3127,1735.8364,3591.3887,3904.8271,143665.6094,156821.1563,171879.2031,130128.6328,3808.7148,3794.7673,3649.5928,4170.0083,122938.7734,113111.2891,132239.8906,143395.7813,4158.6089,4084.9153,4075.6394,76885.4844,119064.2266,159789.6250,158.903625
1695.3127,1735.8364,3591.3887,3904.8271,143665.6094,156821.1563,171879.2031,130128.6328,3808.7148,3794.7673,3649.5928,4170.0083,122938.7734,113111.2891,132239.8906,143395.7813,4158.6089,4084.9153,4075.6394,76885.4844,119064.2266,159789.6250,158.907623
4947.2231,4439.4585,4348.0400,3983.7959,143722.6250,156520.6406,171896.0000,128934.7813,4098.8853,3792.7781,4727.2148,3999.5093,123074.6875,112780.4609,132378.5625,142096.7188,4191.4658,3084.5183,3896.7583,77194.6328,118378.5000,159978.2656,158.911621
4687.8311,4189.6558,4272.3345,3972.5308,143716.4375,156588.4063,171900.9375,129182.0156,4029.7065,3802.0093,4583.3145,4050.2700,123059.0000,112851.7656,132346.2656,142311.7656,4217.5503,3281.3030,3938.9807,77156.9219,118567.7500,159938.8594,158.915619
4687.8311,4189.6558,4272.3345,3972.5308,143716.4375,156588.4063,171900.9375,129182.0156,4029.7065,3802.0093,4583.3145,4050.2700,123059.0000,112851.7656,132346.2656,142311.7656,4217.5503,3281.3030,3938.9807,77156.9219,118567.7500,159938.8594,158.919617
659.7117,459.7083,3282.5994,3880.1287,143655.7031,156911.3906,171883.0313,130484.8750,3707.1484,3792.3757,3078.7961,4239.4775,122917.2031,113203.8281,132185.8906,143674.9531,4205.8159,4342.9214,4133.4185,76834.3672,119350.8672,159729.8750,158.923615
-2614.6624,-2535.6265,1982.2644,3841.5496,143627.5469,157045.0938,171871.4375,131023.4375,3589.4888,3800.3777,1349.2406,4310.0645,122847.9766,113350.4766,132124.9375,144292.7969,4167.3931,4598.1782,4209.7720,76673.8125,119626.6641,159638.3438,158.927612
1649.8269,1651.1903,3505.7815,3908.3142,143659.0000,156818.2969,171876.2813,130121.2578,3817.3201,3809.2512,3572.2556,4174.8140,122931.7500,113106.2578,132232.8281,143394.1250,4155.5244,4087.6421,4073.8064,76874.8672,119052.4531,159776.9531,158.931610
4939.1543,4434.5410,4341.6475,3979.6162,143707.5781,156508.3438,171885.9844,128916.3828,4093.5654,3786.1172,4720.5093,3996.0671,123061.6563,112767.9688,132364.6406,142082.5625,4190.4155,3231.8611,3896.7805,77186.6719,118366.2500,159967.9844,158.935608
731.1702,541.7169,3273.7258,3887.7058,143651.9219,156908.0781,171882.9219,130467.9766,3715.4634,3808.5359,3075.1306,4245.7139,122913.9141,113197.6797,132182.5781,143662.4375,4205.6816,4338.6074,4132.9268,76829.8906,119334.6875,159721.7344,158.939606
1630.7385,1660.1534,3546.3052,3904.5813,143644.7344,156809.0156,171867.5469,130108.8516,3813.9004,3799.3271,3598.6978,4173.4507,122920.0156,113096.5156,132219.9688,143385.3906,4157.9385,4095.3088,4078.5002,76869.7500,119047.1094,159769.7031,158.943604
4701.1528,4202.8652,4274.6147,3971.5249,143694.2813,156567.1875,171887.8125,129135.3906,4031.6287,3796.6895,4588.1426,4048.0796,123041.1172,112828.2734,132326.9688,142271.4844,4220.7466,3305.3757,3941.4617,77149.3438,118537.0391,159923.8906,158.947601
-2629.4368,-2551.3845,1954.0118,3851.2502,143615.7813,157037.8281,171868.5469,131000.2578,3564.3208,3813.9451,1324.8102,4320.8154,122838.2734,113339.9063,132114.0938,144276.8125,4174.3667,4607.9683,4217.7964,76666.7969,119607.6250,159624.4844,158.951599
4926.2798,4427.2324,4338.8311,3980.3315,143687.8906,156495.3750,171875.7656,128891.5313,4094.3254,3786.6089,4716.9780,3999.2188,123045.0547,112752.7031,132347.0938,142066.9688,4194.2598,3289.1709,3902.5251,77175.5156,118348.0781,159952.4531,158.955597
4723.3481,4222.3340,4278.2578,3974.0505,143686.3438,156559.9531,171884.0156,129114.3984,4035.3613,3801.6741,4593.5737,4048.7502,123035.3281,112819.3750,132321.2656,142255.9688,4218.9141,3386.3115,3940.5676,77145.3203,118521.8203,159918.1719,158.959595
837.0505,619.4115,3303.6101,3888.4880,143631.8281,156888.2500,171871.8750,130421.0625,3719.3525,3806.3008,3115.7883,4244.3281,122898.6719,113175.8672,132166.1094,143622.9375,4209.5708,4334.4727,4135.9219,76824.4375,119305.1563,159710.1563,158.963593
-2599.3289,-2506.2339,2058.9309,3841.0801,143595.8438,157020.3750,171854.0781,130975.2734,3589.5559,3797.2036,1420.8556,4311.6289,122821.9609,113322.8516,132096.4844,144255.5313,4172.8691,4607.5439,4217.1929,76659.9531,119595.8203,159616.6250,158.967590
4911.9297,4412.1670,4336.9312,3979.3479,143676.1406,156486.0938,171868.1250,128875.7734,4092.9172,3792.1074,4714.0498,3998.9729,123033.5859,112741.7734,132335.1563,142056.1094,4189.1416,3284.9910,3898.6135,77163.4297,118331.0000,159936.9375,158.971588
707.8574,542.8345,3334.9248,3884.1296,143616.7188,156873.6719,171861.2344,130392.4922,3711.5293,3798.9917,3159.3743,4239.3213,122885.7266,113159.8125,132152.5781,143597.3281,4207.2466,4331.0527,4131.8540,76817.7109,119285.7344,159698.9844,158.975586
1497.4327,1544.5502,3539.6445,3901.9663,143612.0313,156788.7188,171849.2969,130078.4063,3803.1045,3796.3096,3586.8513,4177.7197,122891.4297,113073.6250,132189.3125,143368.3125,4160.9336,4108.2954,4085.9658,76850.0781,119025.1172,159743.3906,158.979584
4909.2700,4414.5142,4337.8477,3982.4995,143669.5469,156483.1875,171866.2500,128866.1406,4096.1357,3794.3650,4715.2793,4004.2478,123028.7813,112737.6328,132330.0625,142051.5938,4193.5449,3228.0388,3904.3801,77163.2266,118327.0234,159934.9531,158.983582
4718.6987,4219.8306,4279.3755,3971.5696,143662.7969,156536.8438,171869.2188,129064.7578,4035.8979,3797.5835,4597.9995,4045.3750,123015.8828,112793.6719,132300.6250,142213.7031,4219.1377,3389.3960,3939.0254,77136.6016,118488.6953,159902.2344,158.987579
787.6531,590.2202,3312.4836,3882.4309,143604.5156,156861.8125,171853.9688,130367.6172,3714.5022,3793.2473,3137.5813,4237.1978,122876.2109,113146.9609,132142.0781,143575.5938,4209.9507,4330.6055,4134.0444,76815.2109,119271.1172,159692.6875,158.991577
-2634.8906,-2490.1184,1935.9069,3844.2542,143577.9063,157006.8750,171844.8281,130944.8516,3582.0234,3803.4397,1302.9055,4316.0322,122806.0938,113305.7500,132079.3438,144232.3125,4173.9868,4610.6953,4218.1987,76648.3984,119571.3438,159597.8125,158.995575
4899.0776,4405.7300,4332.9077,3979.0127,143655.2344,156471.8906,171857.1406,128848.9297,4092.4702,3787.6819,4709.6465,4000.5374,123016.7109,112725.9219,132317.0469,142038.6406,4193.6118,3305.2642,3905.3413,77155.7578,118315.5781,159925.5469,158.999573
4717.2012,4218.7129,4279.1968,3969.8708,143650.3125,156525.0625,171861.5313,129039.6563,4035.1155,3792.3533,4599.4077,4041.7092,123006.0703,112780.7266,132290.3750,142192.7344,4219.4058,3416.7546,3938.6230,77132.0938,118472.4922,159894.9219,159.003571
757.7465,596.9927,3367.1785,3889.5610,143600.6094,156857.2344,171853.7500,130348.4609,3723.4204,3806.0325,3204.6812,4241.4443,122873.7969,113140.9297,132139.6875,143561.4063,4211.4038,4329.8232,4135.0503,76813.8906,119256.9453,159688.8438,159.007568
1470.9012,1522.4890,3501.8477,3904.4697,143593.1406,156778.2188,171839.7813,130059.4063,3808.6924,3804.6914,3547.1995,4183.0840,122874.1719,113059.8359,132171.0625,143358.7188,4160.7324,4117.2583,4088.6479,76834.1875,119005.9609,159721.8281,159.011566
4902.9219,4413.2402,4337.9819,3986.8357,143652.0469,156471.5781,171857.7344,128841.5547,4099.4438,3804.8926,4715.4805,4010.1040,123013.2656,112723.1953,132313.6875,142036.9219,4194.3716,3270.9541,3907.4871,77150.1250,118304.6484,159915.7344,159.015564
4731.9087,4235.5215,4280.8506,3970.5862,143640.4219,156515.6094,171856.0469,129016.9219,4037.6414,3791.1240,4602.7158,4042.8494,122998.4453,112770.1094,132282.0156,142173.6563,4222.4453,3416.4863,3941.2383,77130.5234,118458.3438,159888.7344,159.019562
821.4266,635.7730,3254.9055,3888.9800,143589.8125,156847.5938,171847.5313,130323.6953,3712.2893,3801.7188,3092.4756,4241.3774,122865.8359,113129.4609,132131.1719,143540.9531,4212.9907,4327.2754,4135.8994,76811.8594,119241.8125,159682.6250,159.023560
-2645.1948,-2494.2981,1928.6426,3849.9536,143562.5156,156995.5781,171837.9063,130915.7969,3569.6406,3814.8391,1306.7723,4322.8047,122793.7734,113291.7109,132066.1250,144212.8281,4175.4399,4613.8691,4220.5903,76639.9453,119549.8906,159583.9219,159.027557
1428.6340,1553.1780,3505.3123,3902.7263,143580.7344,156769.7188,171832.4531,130047.9453,3803.8867,3800.3328,3543.2654,4183.3970,122863.7578,113051.2500,132159.7813,143351.9844,4161.8052,4127.1602,4091.1514,76829.1094,119000.4141,159715.5313,159.031555
4890.6733,4404.4336,4331.1646,3981.5383,143636.7500,156460.2813,171847.7813,128823.9375,4094.6160,3793.8955,4707.6348,4005.9912,123000.9531,112711.6172,132300.7813,142024.2813,4194.1260,3181.5249,3908.4258,77144.0000,118295.1094,159908.1094,159.035553
4748.5610,4249.4912,4289.2100,3977.4033,143636.5000,156511.6406,171855.6563,128999.1094,4045.5090,3806.7478,4613.3105,4047.9678,122995.2969,112763.9453,132279.0938,142161.2500,4221.7749,3211.9231,3940.0088,77124.9141,118440.3438,159879.5469,159.039551
879.6752,683.9634,3334.6790,3886.0964,143576.3750,156833.6406,171838.4219,130296.7813,3723.8899,3798.2095,3177.7026,4237.5552,122854.3047,113114.7109,132118.8750,143517.1719,4212.3872,4319.2734,4134.0889,76805.3516,119223.0156,159672.5469,159.043549
-2668.3735,-2591.7964,1970.5968,3845.7068,143562.4375,156996.3750,171835.7500,130901.8281,3596.1050,3805.1609,1385.6516,4318.7817,122783.1328,113279.6016,132054.4531,144200.9531,4184.0898,4620.9771,4230.0898,76631.7500,119535.0703,159572.3594,159.047546
1327.2466,1371.0336,3453.7468,3921.9709,143627.5625,156814.6719,171862.9375,130071.3438,3827.1550,3828.0713,3534.5259,4202.1504,122874.2188,113061.5547,132170.3594,143379.4219,4189.4546,4154.2280,4122.6899,76822.8125,118990.8672,159705.4063,159.051544
4885.8228,4403.4277,4333.1538,3997.0283,143682.6563,156501.4375,171875.7656,128841.7109,4112.8994,3809.1841,4719.0342,4021.0564,123008.5547,112717.8125,132307.7031,142044.7969,4226.4688,3429.7410,3944.4568,77141.2109,118286.5703,159901.5156,159.055542
4759.4238,4253.8271,4288.3159,3985.7405,143676.4063,156544.4844,171877.8438,129001.8125,4059.3450,3802.9033,4622.7427,4054.9639,122998.6250,112762.4219,132281.3750,142165.1094,4254.6099,3517.8069,3975.5034,77126.6563,118429.2578,159877.2344,159.059540
960.9685,735.4394,3287.9639,3908.3811,143629.4844,156878.5313,171871.9375,130309.9063,3745.9063,3823.6011,3178.8875,4257.6050,122867.4688,113122.8203,132132.0625,143532.2969,4244.3281,4348.2637,4168.9800,76805.9766,119208.9531,159667.0000,159.063538
-2644.9265,-2553.0161,1978.0176,3864.1470,143599.0625,157027.5313,171859.9219,130914.2109,3605.1350,3824.4504,1450.9634,4337.0654,122792.5703,113287.2891,132063.0625,144215.4844,4210.5322,4644.9380,4260.1753,76634.3594,119530.2188,159569.6719,159.067535
1344.7032,1413.4572,3482.8486,3916.7185,143618.4531,156806.5156,171855.4688,130059.6328,3821.3882,3812.8274,3551.2451,4200.2505,122862.2188,113051.4531,132156.8906,143369.9688,4195.0425,4164.3979,4129.6187,76819.7656,118987.1797,159699.1563,159.071533
4882.0229,4400.8569,4334.0923,3999.3975,143678.7031,156498.4375,171873.8438,128832.5469,4115.9170,3816.5825,4719.3247,4025.7278,123002.3594,112712.6250,132301.4531,142040.1406,4226.7373,3341.2280,3945.7085,77136.2891,118278.0078,159893.9063,159.075531
4763.6709,4265.6514,4293.6582,3990.2334,143674.1250,156540.4219,171877.2656,128985.8984,4065.0222,3815.3979,4629.4707,4059.5908,122994.5156,112756.2109,132277.3750,142153.5156,4254.2969,3349.7441,3974.8552,77123.1016,118415.4922,159870.6719,159.079529
955.2241,761.5463,3314.8083,3901.1838,143615.6719,156863.6406,171861.3906,130283.1094,3743.4924,3808.4241,3205.0835,4250.4971,122855.5313,113108.1563,132119.1719,143508.6250,4245.0210,4342.1167,4169.0249,76804.4766,119197.5781,159664.0000,159.083527
-2680.3987,-2582.8782,1923.4569,3859.9451,143588.0469,157017.5625,171851.8438,130897.2422,3597.2896,3820.6729,1389.5632,4334.6289,122781.3672,113276.1797,132051.4844,144202.2969,4207.2910,4644.1113,4257.8062,76627.3203,119519.0859,159561.6094,159.087524
1218.8853,1303.5314,3467.3813,3915.7349,143610.0156,156800.2344,171849.7344,130051.6797,3815.7556,3818.7729,3533.2966,4202.0161,122851.2422,113043.1406,132145.5469,143365.7344,4190.9741,4166.3652,4127.6294,76808.3281,118975.9375,159685.7969,159.091522
4855.6035,4380.2710,4322.1118,3989.5403,143660.7344,156482.5469,171859.8281,128813.2109,4105.4341,3799.5283,4705.0869,4017.5471,122984.7500,112696.4844,132282.9375,142023.6094,4223.8315,3449.4775,3944.0769,77125.6719,118264.9531,159881.0000,159.095520
4760.9438,4256.0850,4292.4287,3987.6851,143663.2656,156528.8125,171869.6406,128962.9453,4064.1282,3811.0840,4628.3311,4056.5061,122984.2109,112743.6719,132266.7969,142133.6875,4252.9556,3510.5203,3973.2236,77117.3828,118398.9297,159861.9063,159.099518
981.7333,762.6191,3337.9871,3904.6262,143611.0313,156857.4063,171859.5000,130264.8906,3749.6392,3818.7729,3229.1118,4253.8271,122849.9219,113100.3359,132113.6875,143494.0313,4244.2383,4343.2568,4167.8848,76800.3672,119182.1797,159656.8125,159.103516
-2653.7554,-2558.6040,1941.4501,3854.1782,143574.7344,157005.4219,171842.4844,130878.2656,3607.0796,3812.1792,1400.0015,4330.4717,122768.6719,113263.6641,132038.2344,144185.8750,4206.9111,4645.5415,4257.6943,76622.1563,119508.7813,159553.9844,159.107513
1245.6627,1330.3982,3460.2959,3915.9360,143602.5469,156796.2969,171846.0313,130044.7500,3818.6614,3819.2200,3521.1372,4203.8936,122844.3594,113038.8672,132138.5469,143363.7656,4192.1587,4171.0591,4130.1328,76805.0859,118973.1016,159681.7344,159.111511
4854.8882,4382.2607,4322.6929,3992.8484,143655.9531,156479.5469,171858.0469,128805.2109,4107.4233,3809.9888,4704.9526,4022.2634,122978.6875,112691.9688,132277.0156,142020.5469,4221.2607,3439.4863,3943.9429,77119.9531,118256.6172,159873.8125,159.115509
4755.3110,4257.4038,4284.8965,3979.9961,143646.7813,156511.8281,171856.7969,128934.4922,4057.1543,3799.0364,4621.5806,4048.7949,122967.7578,112725.0703,132249.8594,142107.1094,4248.3511,3506.1169,3968.6863,77109.0000,118379.5078,159849.7188,159.119507
910.6547,704.9293,3318.5186,3899.5747,143597.6406,156843.4531,171849.2969,130237.6406,3745.4817,3812.4475,3217.1982,4247.8594,122836.8438,113084.2656,132100.3906,143469.2500,4240.3271,4336.9980,4163.3701,76792.4766,119161.9297,159644.9219,159.123505
-2694.8157,-2606.6157,1912.6387,3855.0947,143567.4844,156998.8438,171837.9219,130864.7422,3592.3945,3819.5554,1373.3358,4332.2822,122760.2266,113255.0313,132029.4219,144175.9688,4203.3569,4643.7983,4254.7886,76612.7891,119493.8516,159541.7344,159.127502
1200.6462,1288.8687,3442.9956,3907.6660,143586.5469,156783.4063,171834.0625,130030.0391,3805.3843,3808.6924,3501.4453,4198.9761,122828.4453,113025.2578,132121.8438,143352.4844,4188.0239,4172.9810,4128.1660,76794.1094,118962.4375,159669.2969,159.131500
4842.1255,4373.0068,4316.4346,3988.4229,143643.6563,156469.8750,171849.5781,128790.3672,4103.3779,3804.2444,4697.6885,4019.9165,122966.7734,112681.1953,132264.8281,142009.9219,4219.6294,3373.7722,3943.0042,77112.2656,118246.0469,159864.5469,159.135498
4766.3975,4269.8311,4291.6240,3985.1147,143643.7969,156508.1875,171856.5000,128919.2500,4063.5693,3811.8218,4629.7168,4053.5557,122964.7656,112719.9141,132246.9688,142096.8281,4248.1279,3483.4075,3968.2393,77106.6563,118367.3672,159845.9063,159.139496
960.8568,781.7969,3339.0376,3900.7815,143590.3750,156835.7500,171845.7500,130217.8125,3749.7732,3811.3970,3237.4490,4249.5137,122830.6953,113075.5469,132093.7813,143452.1719,4243.7915,4340.3286,4166.4990,76793.3516,119151.9375,159643.3750,159.143494
-2677.3142,-2593.9421,1774.8179,3857.1509,143561.3125,156994.7813,171835.5156,130853.1875,3611.2148,3822.3269,1236.0961,4335.7241,122754.0547,113248.9531,132022.9844,144166.7813,4206.8218,4649.4307,4258.8120,76610.9609,119486.5469,159536.6719,159.147491
1222.3945,1281.4702,3327.9287,3918.6406,143588.8594,156788.8281,171839.2813,130033.3906,3819.4436,3830.7312,3391.4077,4210.9346,122828.5547,113028.2266,132122.0938,143359.9063,4192.2036,4183.9780,4133.7539,76791.1563,118959.1563,159663.3750,159.151489
4837.0962,4370.6377,4313.9536,3988.8921,143635.5000,156464.2813,171845.3906,128781.0000,4103.7129,3804.0657,4694.4473,4022.1516,122958.7109,112674.7578,132256.2344,142004.1094,4222.6689,3460.9216,3947.2285,77108.7344,118239.7813,159858.5156,159.155487
4768.6997,4277.0063,4290.4844,3983.7290,143633.8906,156498.5938,171850.2656,128897.5625,4064.1282,3807.5972,4629.5156,4051.8347,122955.8906,112708.7813,132238.1406,142078.7500,4248.7534,3509.6931,3968.1721,77103.3203,118353.1719,159839.6875,159.159485
949.3680,775.7396,3312.5283,3904.0896,143585.2969,156829.9531,171843.0156,130199.4688,3754.3552,3824.6516,3220.7075,4251.6147,122824.7969,113067.3672,132088.5000,143438.7656,4239.4775,4332.9302,4161.7158,76785.9531,119133.5000,159633.1875,159.163483
-2703.8010,-2604.4475,1838.6097,3851.1606,143547.4531,156982.1250,171825.2969,130833.8984,3605.5820,3814.8391,1302.8384,4331.5889,122741.3125,113236.1484,132009.9063,144151.3750,4203.8936,4648.1343,4256.2412,76604.0547,119474.7422,159528.3906,159.167480
1152.8135,1265.8016,3395.6992,3907.6436,143569.9219,156773.7813,171824.6719,130015.5781,3809.0947,3815.1743,3451.1091,4204.3628,122810.6719,113012.6953,132103.8125,143346.0625,4186.6382,4182.5254,4129.8872,76779.0469,118946.7734,159649.6719,159.171478
4832.5366,4371.2856,4315.3618,3992.7815,143630.7344,156461.7813,171843.3750,128773.5781,4107.7139,3818.3931,4696.4590,4028.1643,122952.2734,112669.8438,132250.3125,142001.9219,4219.3833,3405.4893,3945.0828,77098.6953,118226.7344,159845.9531,159.175476
4775.3159,4281.6328,4288.1821,3979.6609,143621.2813,156485.1406,171841.2500,128873.3359,4061.6694,3803.0151,4629.6719,4048.4148,122943.9531,112694.4766,132225.6250,142057.2656,4246.6748,3500.6631,3965.8923,77096.5469,118335.4766,159829.3906,159.179474
1016.4232,840.2244,3280.7666,3899.0605,143571.6406,156815.9063,171833.6563,130172.4609,3742.8889,3811.7993,3192.0078,4246.8535,122813.1719,113052.5078,132076.2969,143414.1094,4240.2373,4332.7290,4161.2466,76783.1328,119118.2734,159626.9063,159.183472
-2677.3367,-2594.2327,1721.1737,3859.0957,143546.5469,156982.4219,171827.1563,130826.1641,3587.1418,3830.8877,1194.9019,4339.7476,122739.0313,113233.6172,132007.9688,144148.2656,4203.6699,4649.1626,4256.0625,76598.8438,119463.5000,159520.3906,159.187469
1184.3741,1263.6782,3312.9307,3907.8672,143561.8750,156768.4219,171820.2031,130007.8906,3805.8091,3818.3706,3374.3533,4206.8442,122802.2422,113006.3047,132094.8281,143342.8281,4186.4595,4187.8896,4131.2949,76772.8047,118940.1797,159642.0938,159.191467
4819.6841,4359.9536,4304.3423,3983.3713,143613.0156,156446.8125,171830.1875,128753.7344,4098.3711,3800.2659,4684.7690,4020.8105,122936.0234,112654.5313,132233.2031,141985.2656,4217.7515,3421.8284,3944.8145,77091.7422,118216.3125,159837.1406,159.195465
1067.6981,921.6295,3346.4807,3898.4570,143562.0313,156805.0781,171826.9688,130149.0156,3751.7178,3815.7778,3262.3711,4245.7358,122803.3438,113039.7422,132065.9688,143393.9219,4237.1084,4317.6865,4157.8491,76775.9844,119098.6953,159616.1719,159.199463
-2702.5046,-2600.3347,1864.2919,3846.1987,143525.6875,156963.0000,171810.9063,130799.5391,3601.4470,3809.8323,1335.5391,4329.1753,122720.3906,113214.3281,131987.7813,144123.5469,4201.3008,4647.9556,4254.0732,76591.2891,119450.0234,159510.5781,159.203461
986.4719,1096.8224,3372.3193,3907.9565,143553.9219,156764.0000,171815.7813,130000.5547,3807.7983,3823.1094,3428.7129,4210.2417,122793.6641,113000.1328,132086.0938,143340.0625,4184.4922,4191.0635,4130.8481,76764.6719,118931.8828,159632.2656,159.207458
4801.0649,4344.2847,4307.0469,3987.9980,143609.0625,156444.9063,171829.4531,128747.0938,4102.4614,3812.7827,4687.7417,4026.8901,122931.4375,112651.2266,132228.5625,141984.2656,4217.7964,3471.1365,3945.6191,77085.7578,118207.8438,159829.6719,159.211456
4779.0933,4281.0967,4289.0093,3977.1128,143601.4219,156464.6875,171828.3125,128828.6328,4062.1611,3798.7012,4634.0527,4045.2410,122925.9844,112671.4531,132207.1406,142020.2969,4244.9312,3495.0527,3963.5005,77087.8125,118304.4922,159815.0156,159.215454
1069.9332,886.6266,3327.4817,3898.5688,143553.3750,156795.7656,171821.9688,130126.6016,3747.6274,3814.9731,3249.5413,4245.1772,122795.9609,113029.3906,132058.4219,143375.4375,4237.1978,4321.4414,4157.2681,76772.8516,119083.6094,159609.8750,159.219452
-2692.4688,-2594.5010,1820.2366,3852.0771,143522.7656,156960.8281,171811.2344,130789.7266,3581.1069,3819.9131,1301.1173,4335.4785,122717.0391,113210.5547,131984.2969,144118.0313,4202.8652,4650.6826,4256.0181,76588.0000,119440.5234,159504.3750,159.223450
1012.2211,1132.6299,3364.1833,3903.0168,143540.7500,156753.9219,171807.2188,129987.5938,3799.4834,3811.3523,3420.8003,4207.4478,122781.6172,112989.8047,132072.9219,143329.9688,4186.9512,4195.9365,4134.8491,76759.9766,118925.5391,159624.7344,159.227448
4800.6182,4347.1460,4303.0459,3985.3831,143598.2344,156436.5156,171822.4063,128733.2813,4099.9131,3808.8936,4683.9194,4026.1301,122920.9766,112641.6328,132217.6875,141974.6719,4215.6284,3444.7166,3946.5132,77078.9375,118196.8672,159819.7969,159.231445
4800.6182,4347.1460,4303.0459,3985.3831,143598.2344,156436.5156,171822.4063,128733.2813,4099.9131,3808.8936,4683.9194,4026.1301,122920.9766,112641.6328,132217.6875,141974.6719,4215.6284,3444.7166,3946.5132,77078.9375,118196.8672,159819.7969,159.235443
4795.4771,4297.2793,4294.4404,3980.9126,143596.4688,156459.0469,171826.2188,128810.9531,4066.9221,3808.8264,4641.6523,4048.6384,122920.9297,112663.9219,132202.0469,142007.3281,4242.8750,3455.1548,3962.3831,77083.3203,118288.7344,159807.3281,159.239441
1101.8516,922.3447,3350.0122,3894.1877,143540.5000,156782.1875,171812.8906,130099.5781,3750.8909,3805.9656,3281.3701,4240.7515,122785.2109,113015.2891,132047.1094,143351.8281,4237.2202,4313.6182,4156.4409,76770.3516,119068.8984,159604.9063,159.243439
1101.8516,922.3447,3350.0122,3894.1877,143540.5000,156782.1875,171812.8906,130099.5781,3750.8909,3805.9656,3281.3701,4240.7515,122785.2109,113015.2891,132047.1094,143351.8281,4237.2202,4313.6182,4156.4409,76770.3516,119068.8984,159604.9063,159.247437
-2711.2666,-2610.0354,1782.6633,3848.8137,143511.0313,156950.6875,171803.1250,130771.3125,3592.8640,3816.8062,1269.7131,4333.5337,122706.3750,113199.2656,131973.2813,144103.6094,4200.9878,4649.4087,4254.2295,76581.0547,119427.4219,159495.0313,159.251434
942.8636,1058.4221,3358.2600,3905.4978,143534.6250,156750.6250,171804.3750,129981.0703,3798.4106,3820.6060,3414.4299,4212.3872,122775.3125,112985.3125,132066.4688,143329.2344,4185.2075,4200.0044,4134.2007,76752.3594,118917.4219,159615.8281,159.255432
942.8636,1058.4221,3358.2600,3905.4978,143534.6250,156750.6250,171804.3750,129981.0703,3798.4106,3820.6060,3414.4299,4212.3872,122775.3125,112985.3125,132066.4688,143329.2344,4185.2075,4200.0044,4134.2007,76752.3594,118917.4219,159615.8281,159.259430
4783.5859,4330.3374,4299.0674,3982.7231,143586.9063,156427.7813,171815.4688,128719.1328,4096.6724,3802.2773,4679.3823,4024.9456,122911.2578,112632.4922,132207.2188,141965.0469,4218.5342,3487.9226,3948.5249,77075.4922,118190.2969,159815.5000,159.263428
4797.4219,4298.8662,4299.4922,3984.2876,143591.0469,156453.8906,171824.4844,128793.5859,4072.2195,3810.6370,4647.9556,4051.5217,122916.7969,112657.3047,132197.7188,141993.9219,4248.2842,3501.5793,3966.1829,77084.7969,118279.7500,159806.8125,159.267426
1120.2694,947.2446,3378.5107,3903.5757,143540.5000,156781.0781,171815.6250,130084.9141,3761.3066,3821.8799,3312.5730,4248.7983,122785.0156,113011.9609,132046.7656,143341.3594,4240.9526,4317.7310,4158.9219,76770.8203,119057.0313,159602.2656,159.271423
1120.2694,947.2446,3378.5107,3903.5757,143540.5000,156781.0781,171815.6250,130084.9141,3761.3066,3821.8799,3312.5730,4248.7983,122785.0156,113011.9609,132046.7656,143341.3594,4240.9526,4317.7310,4158.9219,76770.8203,119057.0313,159602.2656,159.275421
-2689.3618,-2586.1414,1810.0219,3849.0820,143502.5469,156943.7813,171798.6094,130755.8906,3605.1128,3815.1743,1297.6528,4334.6738,122699.1797,113191.2188,131965.1563,144091.2813,4204.5640,4653.4541,4257.4258,76579.4844,119419.2891,159490.7344,159.279419
949.7927,1076.4376,3330.5886,3904.9167,143525.4844,156745.6875,171799.3281,129972.5469,3802.4563,3818.9294,3384.2551,4213.4380,122766.8594,112979.0313,132057.4844,143324.9688,4186.6826,4204.0947,4137.0171,76747.2578,118911.7031,159608.8438,159.283417
949.7927,1076.4376,3330.5886,3904.9167,143525.4844,156745.6875,171799.3281,129972.5469,3802.4563,3818.9294,3384.2551,4213.4380,122766.8594,112979.0313,132057.4844,143324.9688,4186.6826,4204.0947,4137.0171,76747.2578,118911.7031,159608.8438,159.287415
4785.9331,4336.4619,4300.4980,3985.7854,143581.0469,156424.1250,171812.6875,128710.3672,4098.4829,3812.6711,4680.7905,4029.2371,122904.7031,112627.2813,132200.6875,141961.9219,4214.6670,3457.8818,3947.6084,77067.4063,118179.3438,159805.4688,159.291412
4804.9766,4304.6553,4295.8711,3978.4985,143576.1719,156438.4844,171813.4531,128765.8281,4067.5928,3801.8975,4645.9663,4045.2856,122903.7891,112641.3438,132184.0938,141970.1406,4244.1045,3484.9944,3962.0029,77077.3984,118260.6875,159796.3750,159.295410
4804.9766,4304.6553,4295.8711,3978.4985,143576.1719,156438.4844,171813.4531,128765.8281,4067.5928,3801.8975,4645.9663,4045.2856,122903.7891,112641.3438,132184.0938,141970.1406,4244.1045,3484.9944,3962.0029,77077.3984,118260.6875,159796.3750,159.299408
1125.9020,922.8364,3308.7957,3901.4746,143529.7813,156770.2813,171808.4688,130060.3516,3760.7031,3817.8567,3250.1895,4245.8701,122775.8281,112999.5781,132037.3438,143320.7031,4240.1035,4313.8643,4157.1782,76766.3672,119040.2031,159594.6406,159.303406
-2717.5920,-2630.9568,1811.6312,3857.3074,143501.8438,156943.4844,171800.5469,130747.5078,3600.7542,3831.3794,1310.7733,4342.8545,122697.2109,113188.7578,131963.1719,144087.5156,4205.9946,4655.6670,4258.7896,76575.7109,119409.0469,159484.5156,159.307404
-2717.5920,-2630.9568,1811.6312,3857.3074,143501.8438,156943.4844,171800.5469,130747.5078,3600.7542,3831.3794,1310.7733,4342.8545,122697.2109,113188.7578,131963.1719,144087.5156,4205.9946,4655.6670,4258.7896,76575.7109,119409.0469,159484.5156,159.311401
920.1095,1050.6884,3362.9985,3902.4580,143514.4375,156737.2031,171792.2344,129960.7266,3794.7227,3814.7498,3416.8215,4212.9238,122756.0234,112969.7578,132045.8750,143316.9063,4187.0405,4210.1299,4138.5596,76740.6641,118903.8750,159600.7031,159.315399
4776.9253,4329.3540,4296.9438,3983.4160,143570.1406,156416.2500,171805.7344,128696.6484,4097.3652,3808.5583,4676.8120,4028.4102,122894.3125,112617.7891,132189.8438,141952.2969,4216.1646,3356.0249,3948.5474,77060.8125,118169.3359,159796.9219,159.319397
1181.2450,1003.1686,3387.6973,3895.6631,143514.7500,156753.8438,171797.1406,130030.7578,3757.3281,3809.5417,3333.8521,4239.3657,122762.1484,112982.3203,132022.7344,143293.7500,4237.0859,4307.3823,4153.5127,76758.2109,119018.8516,159582.3125,159.323395
925.4739,1017.5408,3233.7610,3904.8721,143508.3438,156734.1563,171789.0469,129954.1328,3800.3105,3827.6467,3304.2358,4216.8354,122748.6016,112964.3516,132038.3281,143315.4219,4182.6372,4210.2192,4135.6089,76729.4453,118891.5156,159587.0000,159.327393
4771.2031,4325.4424,4289.9253,3978.9680,143556.5938,156404.5313,171796.1563,128680.0859,4091.2407,3802.5681,4669.7041,4025.1467,122881.3672,112605.5781,132176.1406,141939.7813,4213.3037,3482.9829,3946.8040,77052.3359,118157.1484,159786.5625,159.331390
4820.9136,4325.4424,4299.6040,3978.5210,143558.2344,156420.3438,171801.9688,128723.0859,4070.2078,3803.8420,4652.3589,4043.9893,122886.8281,112619.4141,132166.5781,141935.2031,4242.1152,3487.3413,3958.5386,77066.8906,118228.4531,159780.2813,159.335388
1219.6899,1054.4211,3347.4641,3905.2966,143515.4063,156754.0469,171800.0625,130016.6953,3767.8782,3828.7195,3298.1787,4248.0381,122761.9688,112979.2578,132022.8750,143284.5313,4237.4214,4305.3481,4152.9092,76756.6953,119005.6484,159578.3750,159.339386
888.7947,1031.9353,3309.7122,3894.9702,143489.3906,156718.7656,171774.8438,129935.8906,3790.2075,3809.2065,3354.3933,4209.6826,122730.6328,112948.3672,132019.1406,143299.6719,4180.7148,4212.6553,4135.2739,76719.7422,118880.8750,159574.6406,159.343384
4766.0176,4323.6768,4294.7085,3983.9749,143552.8594,156403.5938,171795.4844,128673.7109,4096.7168,3815.8450,4673.6157,4031.7627,122876.2734,112601.8906,132170.9844,141938.4688,4212.6777,3367.8042,3947.3403,77044.5156,118146.4219,159775.8125,159.347382
1214.6161,1018.7031,3378.6001,3893.5173,143494.5781,156733.0938,171784.0156,129983.0781,3754.9587,3805.1384,3334.3213,4235.2085,122744.5781,112958.4219,132004.2344,143253.4688,4234.7388,4298.1958,4149.8916,76750.0547,118987.3203,159569.3438,159.351379
-2706.1704,-2637.4387,1758.5011,3845.7068,143463.7344,156909.5469,171773.4844,130688.5234,3582.6716,3819.2871,1273.8929,4332.7290,122661.4297,113150.6484,131925.4375,144039.2344,4195.7129,4647.0391,4249.9829,76549.8750,119363.8984,159451.0313,159.355377
4751.7793,4309.9976,4279.5767,3972.0837,143532.0781,156385.3750,171779.4688,128650.8438,4084.3564,3795.2590,4659.0869,4020.9893,122857.6563,112584.0078,132151.2344,141919.2969,4208.0288,3473.6174,3944.1440,77033.6328,118132.6953,159763.7969,159.359375
4839.9346,4333.9810,4301.8389,3977.1353,143538.8594,156399.8594,171789.3281,128679.0078,4070.9453,3805.5186,4658.2822,4041.0610,122868.8125,112596.0781,132147.5938,141898.7656,4237.0410,3440.2017,3953.7329,77053.2969,118193.0938,159760.7344,159.363373
1362.2047,1155.7639,3412.9324,3896.3560,143488.0000,156724.7500,171780.4375,129961.3984,3761.5750,3813.6099,3375.3145,4237.3540,122738.0938,112948.6328,131997.5313,143235.7344,4233.0181,4290.7524,4147.5225,76744.1719,118968.4766,159559.6406,159.367371
-2672.0840,-2588.6001,1839.9285,3841.3706,143451.0313,156897.9375,171765.2188,130668.9609,3598.7202,3809.3630,1350.5371,4330.0469,122650.8359,113139.0703,131913.6719,144022.4531,4198.5293,4650.4590,4252.4863,76547.2344,119354.7109,159445.3438,159.371368
766.5530,890.4488,3293.7754,3897.8535,143475.4688,156710.8281,171768.2031,129920.8750,3791.2805,3818.3931,3343.2173,4216.5449,122717.3984,112938.3516,132005.0156,143294.5938,4180.7598,4220.7466,4137.9785,76708.2578,118867.5313,159560.4688,159.375366
4737.6533,4295.5806,4288.4502,3981.0244,143532.5781,156387.7813,171782.9688,128648.1016,4092.2019,3810.8381,4667.0664,4031.4053,122857.8359,112585.0391,132151.3125,141922.1250,4212.4990,3488.1238,3949.7319,77033.4766,118129.4375,159761.8750,159.379364
4830.1670,4324.6602,4303.4033,3976.6433,143529.9063,156391.2344,171784.2188,128658.7188,4072.2866,3800.1987,4661.0313,4040.8823,122861.7031,112586.5625,132139.8906,141882.0938,4241.1094,3460.6758,3956.9067,77054.3750,118183.9922,159759.4531,159.383362
1239.7618,1069.6650,3445.2083,3899.2393,143481.9688,156718.5781,171777.7969,129941.1719,3764.2795,3814.9731,3415.6370,4239.5444,122733.0859,112940.2500,131992.1406,143218.7813,4236.2588,4292.7417,4149.6685,76744.6016,118956.2734,159556.5781,159.387360
749.6328,892.2593,3288.1426,3890.3433,143459.1719,156697.8125,171756.1250,129905.4922,3778.0706,3807.0383,3333.0474,4211.5601,122701.4141,112924.2266,131987.8906,143282.0313,4177.5854,4221.2163,4136.5479,76697.4375,118856.1797,159546.9219,159.391357
4727.3491,4290.4844,4281.6108,3975.2800,143518.3281,156376.7031,171772.7031,128632.2969,4086.6140,3804.1772,4659.4224,4027.4490,122843.7266,112572.2344,132136.5781,141910.1250,4207.5591,3442.1462,3946.9155,77022.9688,118116.6016,159749.2031,159.395355
4841.9688,4334.7407,4307.1587,3978.5881,143523.0938,156383.2188,171780.1719,128638.6172,4074.8123,3808.9382,4666.9102,4041.7317,122854.6172,112576.5469,132132.5313,141866.1406,4237.3540,3446.7283,3953.4424,77047.4922,118165.8906,159749.8750,159.399353
1301.5197,1096.4872,3411.6807,3892.6455,143467.0781,156702.7031,171766.7500,129912.3984,3761.8655,3805.3621,3383.4951,4231.8779,122720.3047,112923.8672,131978.5313,143193.4531,4233.1519,4286.2148,4146.0918,76738.4063,118938.4141,159548.3750,159.403351
-2695.7769,-2597.7197,1748.3534,3841.3931,143433.5156,156882.7344,171754.6406,130636.8906,3598.4072,3813.8110,1264.3041,4331.0752,122634.2734,113120.5859,131896.1719,143998.1094,4196.3164,4649.3193,4250.6758,76535.1641,119329.6797,159428.4219,159.407349
727.3257,883.9444,3260.8289,3894.5454,143454.3594,156695.8750,171754.8281,129899.9766,3785.3572,3818.9519,3299.5198,4217.1704,122696.1875,112920.6953,131982.4844,143281.8906,4177.0493,4225.7983,4137.1738,76689.7734,118847.3750,159537.6250,159.411346
4714.9438,4277.1401,4278.3027,3972.8213,143506.6719,156367.7188,171765.4844,128618.4844,4083.9766,3799.4612,4655.2202,4026.1748,122833.0938,112562.4219,132125.2656,141900.6875,4209.1016,3506.0051,3948.4355,77015.8125,118106.1875,159739.9063,159.415344
4843.2876,4335.2773,4308.0977,3977.6716,143512.7031,156373.3281,171773.6406,128616.7188,4075.8628,3805.7419,4668.6982,4039.6978,122845.7656,112565.0781,132123.3438,141848.2344,4237.9351,3480.1887,3952.7495,77042.3047,118150.0625,159741.6719,159.419342
1299.8209,1128.2266,3478.0208,3901.2510,143465.6563,156699.8750,171767.9219,129895.6797,3770.6050,3821.8577,3458.3289,4238.4272,122718.5156,112918.7266,131976.7344,143181.4688,4233.5098,4284.7847,4145.5107,76735.1250,118922.4297,159542.0469,159.423340
-2689.8535,-2581.6711,1853.6748,3840.8789,143423.9375,156874.1719,171748.7344,130620.0391,3598.5413,3810.9275,1374.7440,4331.0752,122625.6641,113111.0859,131886.5313,143984.5000,4197.5010,4651.1519,4251.9946,76531.3438,119319.4453,159422.3438,159.427338
716.2393,862.2185,3253.3411,3891.0361,143442.5000,156687.7969,171746.8125,129888.0156,3782.2280,3813.2744,3296.2339,4215.6284,122685.1484,112911.4609,131970.7969,143274.1563,4175.6411,4227.6313,4137.3301,76682.7266,118839.5938,159529.1563,159.431335
4714.7876,4282.5493,4279.1074,3976.1069,143500.6250,156363.7188,171762.1563,128608.8281,4086.1445,3812.4475,4656.1812,4030.3323,122826.0469,112556.3594,132118.3125,141896.5781,4203.0444,3453.3220,3944.8816,77005.6484,118092.5547,159727.7031,159.435333
1341.1716,1140.6989,3375.4263,3891.8408,143447.9219,156682.2188,171754.2344,129864.4375,3759.8538,3806.5691,3357.1426,4228.9277,122703.0000,112899.9063,131960.5781,143153.3281,4229.1289,4276.9839,4140.1240,76727.3906,118902.4219,159530.8594,159.439331
-2689.5852,-2591.5283,1730.6956,3844.6787,143418.4688,156869.5625,171746.1563,130606.3125,3589.3772,3822.7517,1253.5975,4334.6064,122619.5000,113104.1172,131880.5156,143975.5781,4193.7236,4647.6206,4248.2173,76522.9141,119303.7734,159410.7969,159.443329
711.4783,880.3458,3246.4565,3886.7224,143428.7969,156676.6875,171737.3906,129874.2031,3774.5166,3807.5747,3277.7937,4213.1694,122672.4297,112900.2188,131957.0469,143264.4688,4173.1821,4230.2241,4136.1006,76673.8828,118829.7813,159518.6563,159.447327
711.4783,880.3458,3246.4565,3886.7224,143428.7969,156676.6875,171737.3906,129874.2031,3774.5166,3807.5747,3277.7937,4213.1694,122672.4297,112900.2188,131957.0469,143264.4688,4173.1821,4230.2241,4136.1006,76673.8828,118829.7813,159518.6563,159.451324
4701.5327,4270.6582,4271.0161,3968.5745,143484.5313,156350.8438,171750.7813,128591.1875,4078.5002,3798.1648,4646.7935,4024.7219,122812.0781,112543.1953,132103.5156,141883.2813,4202.2617,3389.4407,3944.4568,76998.4297,118082.8750,159719.2188,159.455322
4701.5327,4270.6582,4271.0161,3968.5745,143484.5313,156350.8438,171750.7813,128591.1875,4078.5002,3798.1648,4646.7935,4024.7219,122812.0781,112543.1953,132103.5156,141883.2813,4202.2617,3389.4407,3944.4568,76998.4297,118082.8750,159719.2188,159.459320
4861.5264,4352.2646,4311.7856,3977.8950,143494.7031,156354.6719,171762.0000,128573.9375,4078.3438,3813.3640,4675.5156,4038.8037,122828.5547,112542.7266,132105.7813,141813.9063,4231.9448,3252.8494,3945.6863,77027.8672,118113.8750,159721.1406,159.463318
4861.5264,4352.2646,4311.7856,3977.8950,143494.7031,156354.6719,171762.0000,128573.9375,4078.3438,3813.3640,4675.5156,4038.8037,122828.5547,112542.7266,132105.7813,141813.9063,4231.9448,3252.8494,3945.6863,77027.8672,118113.8750,159721.1406,159.467316
1397.0957,1193.4490,3442.9285,3892.5115,143439.0313,156671.9531,171748.6250,129841.4609,3765.5759,3809.2288,3428.2209,4227.9663,122694.6875,112888.3281,131951.7813,143133.5469,4228.3911,4265.4727,4138.4702,76721.8672,118884.5625,159521.7969,159.471313
1397.0957,1193.4490,3442.9285,3892.5115,143439.0313,156671.9531,171748.6250,129841.4609,3765.5759,3809.2288,3428.2209,4227.9663,122694.6875,112888.3281,131951.7813,143133.5469,4228.3911,4265.4727,4138.4702,76721.8672,118884.5625,159521.7969,159.475311
-2696.3132,-2619.8701,1798.0637,3837.2581,143402.8125,156855.4375,171735.1094,130584.3438,3596.1721,3808.0889,1332.3428,4328.2139,122606.0859,113089.6563,131865.8281,143955.9063,4194.8857,4649.4087,4249.4243,76518.1563,119292.8906,159403.7813,159.479309
627.4135,774.3985,3205.6201,3892.3997,143426.8438,156677.7813,171738.4531,129871.0938,3781.9150,3822.1929,3262.7063,4220.4116,122669.2500,112898.7891,131953.9219,143266.2344,4174.2104,4235.1411,4138.2241,76667.8906,118822.7422,159511.0469,159.483307
627.4135,774.3985,3205.6201,3892.3997,143426.8438,156677.7813,171738.4531,129871.0938,3781.9150,3822.1929,3262.7063,4220.4116,122669.2500,112898.7891,131953.9219,143266.2344,4174.2104,4235.1411,4138.2241,76667.8906,118822.7422,159511.0469,159.487305
4699.0742,4272.9380,4271.5522,3973.1565,143480.1563,156348.3750,171749.7500,128584.1719,4082.3672,3807.1726,4649.0508,4029.9746,122807.2500,112539.3281,132098.1563,141881.1094,4204.3408,3499.3220,3947.5862,76993.7734,118075.6563,159713.1563,159.491302
4863.2031,4347.9951,4305.9741,3970.0273,143478.2188,156338.1094,171749.9688,128546.3750,4071.7947,3793.9402,4671.0005,4030.8911,122815.0547,112526.4375,132090.9531,141789.2656,4233.0400,3447.4436,3946.8262,77025.6094,118101.8281,159717.4844,159.495300
4863.2031,4347.9951,4305.9741,3970.0273,143478.2188,156338.1094,171749.9688,128546.3750,4071.7947,3793.9402,4671.0005,4030.8911,122815.0547,112526.4375,132090.9531,141789.2656,4233.0400,3447.4436,3946.8262,77025.6094,118101.8281,159717.4844,159.499298
1465.2462,1229.1448,3397.7332,3894.6348,143431.9375,156664.2656,171744.7813,129819.1250,3763.7654,3813.4980,3389.9773,4229.5313,122688.6797,112878.7188,131945.6250,143115.7813,4227.2290,4267.4844,4136.6372,76718.0234,118868.2031,159515.8750,159.503296
-2675.9285,-2601.7876,1775.8461,3840.7002,143396.9219,156850.2031,171732.2188,130570.4609,3581.4871,3816.5825,1309.3875,4331.7231,122599.9141,113082.5234,131859.3906,143946.5469,4192.9858,4647.7769,4247.7256,76511.0938,119279.2109,159394.3594,159.507294
-2675.9285,-2601.7876,1775.8461,3840.7002,143396.9219,156850.2031,171732.2188,130570.4609,3581.4871,3816.5825,1309.3875,4331.7231,122599.9141,113082.5234,131859.3906,143946.5469,4192.9858,4647.7769,4247.7256,76511.0938,119279.2109,159394.3594,159.511292
600.7925,752.3820,3222.9651,3882.7437,143408.1563,156662.8281,171724.4531,129853.2813,3770.3816,3803.7974,3261.6558,4213.2144,122652.3750,112883.5703,131935.7500,143251.6250,4172.0869,4237.1978,4137.5088,76658.6563,118813.0859,159500.0469,159.515289
4681.1479,4255.4365,4267.3501,3968.7979,143466.9063,156337.8438,171740.2500,128568.1484,4077.4722,3802.2773,4642.8594,4027.1584,122794.3516,112527.5313,132084.7188,141869.4375,4200.2949,3460.1169,3944.8369,76983.8281,118062.6484,159701.2031,159.519287
4870.0874,4359.1489,4312.2993,3974.4976,143473.5625,156332.7500,171748.1094,128529.3672,4076.7568,3804.1997,4678.4658,4034.4673,122810.4453,112519.3516,132085.8906,141776.3125,4232.9287,3317.7810,3946.4016,77021.7188,118087.4375,159710.6563,159.523285
4870.0874,4359.1489,4312.2993,3974.4976,143473.5625,156332.7500,171748.1094,128529.3672,4076.7568,3804.1997,4678.4658,4034.4673,122810.4453,112519.3516,132085.8906,141776.3125,4232.9287,3317.7810,3946.4016,77021.7188,118087.4375,159710.6563,159.527283
1475.3492,1265.8016,3441.3416,3890.2317,143418.7500,156650.4219,171735.6406,129792.5781,3765.3748,3801.7856,3434.6360,4223.8535,122677.9219,112864.5469,131933.7656,143091.5313,4229.3301,4255.3921,4137.9785,76716.6172,118854.9297,159511.2500,159.531281
-2689.2053,-2612.9636,1768.8723,3838.4202,143385.7813,156840.3594,171724.8281,130551.9297,3578.7153,3812.3135,1303.4419,4330.0020,122589.8359,113071.3906,131848.6406,143931.1250,4192.7622,4647.6875,4247.5688,76505.9063,119267.2500,159386.3281,159.535278
500.8132,657.3201,3211.1855,3885.4707,143402.1094,156659.1406,171721.6563,129846.7344,3766.5593,3812.9392,3251.3069,4217.7515,122645.5625,112878.6328,131928.3438,143249.6875,4171.1929,4240.5503,4138.0454,76651.1484,118804.7500,159490.5313,159.539276
4657.7236,4235.9458,4259.0352,3962.5171,143451.9063,156325.6563,171729.5000,128552.1172,4070.8560,3791.7275,4633.9189,4022.5986,122780.8984,112515.2344,132070.3750,141857.7031,4198.9092,3501.7805,3944.6357,76975.8516,118052.5469,159691.5156,159.543274
4869.1260,4351.5269,4310.3994,3970.9214,143460.7344,156319.9531,171738.9531,128504.4453,4075.0806,3799.3718,4678.0635,4030.0193,122798.9844,112505.1328,132074.1563,141755.5000,4229.3970,3421.5603,3942.4675,77014.1406,118069.0625,159700.5469,159.547272
-2663.3220,-2594.4116,1777.4330,3833.0781,143371.7969,156827.3906,171715.0156,130531.1406,3592.6628,3804.8926,1315.1318,4325.0176,122577.3672,113057.8906,131835.0781,143913.3281,4191.6001,4646.9497,4246.3618,76499.0234,119253.9063,159377.3438,159.551270
4661.5010,4238.7847,4265.9644,3971.1448,143451.3281,156327.3125,171732.2500,128549.3047,4078.6121,3807.9102,4640.2666,4031.8745,122779.2266,112514.7891,132068.2656,141859.2344,4202.4409,3510.6096,3949.5754,76971.9844,118045.7734,159685.0313,159.555267
1436.5018,1213.9456,3457.4570,3890.2986,143400.6563,156630.5625,171724.1094,129745.4141,3768.9063,3805.5408,3474.8914,4221.5513,122661.2266,112841.0547,131916.2813,143051.5156,4226.1782,4254.7437,4132.7705,76705.1016,118818.2031,159493.1094,159.559265
491.5819,639.2375,3194.7571,3881.5591,143380.4219,156644.4375,171708.2813,129825.2109,3759.6975,3805.4739,3228.0613,4217.4834,122625.4844,112861.7344,131906.6094,143235.8125,4171.7739,4249.0220,4141.3979,76638.1172,118790.0391,159474.1094,159.563263
4886.7168,4372.1797,4321.3521,3978.6328,143450.1563,156308.9219,171734.9063,128470.7578,4084.8035,3812.5146,4691.5190,4036.8367,122789.0547,112490.5391,132063.5156,141729.2344,4232.6157,3340.2668,3945.2393,77008.2188,118042.6641,159688.5156,159.567261
1507.9156,1299.6198,3486.5144,3891.2822,143387.9531,156617.5781,171717.1875,129721.1641,3769.6887,3803.7751,3478.6912,4221.9316,122653.6953,112830.3281,131907.9688,143030.5469,4226.7817,4256.3755,4132.0776,76704.6094,118805.9063,159489.8594,159.571259
543.9968,653.4308,3064.8936,3878.3403,143328.0156,156601.5625,171680.5313,129796.4844,3748.5215,3815.2639,3065.0276,4216.4551,122610.2188,112850.1563,131891.4219,143214.1875,4145.1533,4232.9731,4113.3691,76630.8984,118783.8750,159466.5313,159.575256
4889.8462,4373.2080,4318.0889,3963.1431,143383.7500,156251.3906,171695.6719,128418.7500,4068.4197,3793.7837,4680.9023,4021.7715,122765.3906,112465.7969,132039.2188,141683.0781,4204.9219,3303.6995,3914.0808,77002.9609,118029.0781,159683.1406,159.579254
1507.8263,1286.6334,3513.0012,3888.1082,143337.1250,156574.2500,171690.6563,129679.6953,3767.7664,3812.8274,3503.8594,4217.6846,122640.0156,112814.7031,131894.4688,142995.8594,4202.0830,4226.6924,4104.1826,76699.5625,118790.1719,159483.6406,159.583252
-2680.8457,-2604.5146,1896.8584,3823.3105,143291.9063,156759.8438,171670.1250,130455.6875,3579.5872,3801.1152,1363.7916,4317.5747,122541.1797,113020.0469,131796.6250,143850.5313,4165.8286,4628.0625,4216.4106,76483.2891,119220.0859,159355.9688,159.587250
480.1154,648.5582,3184.0283,3870.9644,143308.7344,156589.0000,171668.8594,129780.5938,3753.0588,3802.5234,3175.3110,4211.6719,122596.2500,112837.5000,131876.3594,143202.4063,4144.6392,4235.8564,4114.7549,76623.0313,118775.6719,159458.0156,159.591248
4647.3970,4232.3696,4265.3164,3965.6687,143374.7188,156269.6406,171691.6406,128494.3828,4069.7607,3812.3804,4629.5156,4031.9192,122745.5625,112486.1328,132033.8281,141821.4844,4176.1553,3337.0037,3924.5640,76953.9453,118023.0859,159664.8906,159.595245
4900.7539,4387.7368,4324.8164,3968.8650,143377.5625,156247.0313,171695.0938,128403.3203,4074.9688,3801.3164,4689.2168,4027.1360,122762.2109,112460.2031,132035.5938,141671.9063,4209.3477,3262.7288,3918.9312,77003.2969,118019.7969,159681.4375,159.599243
1580.0448,1396.9617,3495.0527,3885.4929,143322.2344,156561.4063,171682.2656,129653.3203,3761.1726,3799.3271,3481.6416,4214.8906,122630.3594,112801.4531,131883.9531,142972.4219,4206.3970,4232.1460,4108.0044,76700.5234,118779.1797,159482.0781,159.603241
-2653.5767,-2582.0510,1758.2776,3837.1238,143293.2969,156764.8750,171676.2813,130451.2344,3568.8135,3819.1753,1225.8590,4331.3208,122544.0625,113022.1484,131800.0000,143850.6094,4172.9141,4635.3047,4223.8535,76484.3828,119214.4297,159353.6875,159.607239
521.3321,646.9489,3078.9973,3879.8381,143305.3594,156590.4219,171670.7500,129778.7578,3756.8364,3814.3027,3075.4883,4221.8643,122594.3047,112837.3438,131873.9531,143204.6250,4151.1211,4246.7417,4122.6899,76621.6875,118773.0313,159453.7344,159.611237
4637.9644,4222.8477,4254.0732,3957.8679,143355.5000,156255.1563,171679.0938,128475.4297,4061.1106,3792.6663,4617.4453,4025.8396,122730.8750,112472.2734,132017.7500,141805.8750,4178.5913,3433.9878,3928.0508,76949.0547,118015.3281,159657.9688,159.615234
4906.5205,4392.2070,4326.6045,3970.6309,143367.7031,156239.2188,171690.2188,128384.0547,4077.3828,3804.9373,4692.6816,4027.5830,122754.8828,112450.6406,132028.0469,141657.2344,4208.2969,3225.6248,3917.6794,76997.0391,118003.7031,159672.5469,159.619232
1628.4586,1437.7312,3517.1362,3888.6892,143313.9219,156553.4688,171678.2031,129632.4922,3770.9180,3808.5583,3509.3579,4215.3823,122623.9219,112791.7031,131877.2813,142956.0781,4204.2290,4208.8779,4105.5459,76693.9297,118760.9141,159473.2344,159.623230
-2661.6458,-2583.8391,1842.9012,3825.4563,143270.9375,156745.2500,171659.9219,130423.5156,3583.9680,3800.3105,1314.4390,4319.7202,122525.9531,113002.4609,131780.3438,143825.7188,4169.6729,4631.8398,4221.3726,76474.9688,119198.6328,159342.9375,159.627228
330.3364,487.0668,3153.9651,3876.6865,143291.5781,156581.3438,171662.3594,129766.7813,3757.0823,3811.9111,3145.2480,4220.3442,122582.5313,112827.0000,131861.4063,143196.8281,4149.5791,4248.9321,4122.5557,76611.0938,118761.9453,159441.9844,159.631226
4605.5991,4194.9082,4254.9448,3960.4832,143346.9688,156250.1250,171675.3125,128467.0078,4063.6140,3802.2104,4618.2725,4028.6335,122723.0078,112465.6797,132009.4219,141802.0781,4178.2783,3491.9236,3928.7437,76939.0625,118003.5938,159646.4531,159.635223
4897.6025,4377.4995,4319.2734,3961.5337,143347.7500,156220.6094,171675.8750,128354.4609,4070.2971,3788.0842,4686.7358,4017.5918,122738.6563,112431.5469,132010.7188,141630.3438,4206.5757,3366.9995,3915.4668,76988.4375,117984.9766,159661.8125,159.639221
1631.1855,1405.6565,3504.1052,3884.5767,143299.0000,156539.5625,171668.4063,129605.3750,3763.9666,3801.8975,3500.1267,4211.1577,122612.4375,112776.8203,131865.2031,142932.9375,4202.0830,4216.6343,4102.7520,76686.6172,118741.9844,159463.5469,159.643219
-2643.7419,-2575.0103,1833.8264,3828.2278,143262.8125,156739.2031,171656.5469,130409.3672,3554.9106,3806.6807,1308.9851,4322.1792,122519.4922,112995.2188,131773.6094,143816.2344,4168.4438,4630.8120,4220.5234,76467.7734,119185.3984,159333.7969,159.647217
367.3733,528.0153,3148.8914,3869.0645,143273.6875,156568.2500,171650.2813,129750.0391,3742.9561,3798.7458,3138.4978,4214.0859,122568.0000,112813.9688,131846.0000,143184.4375,4147.1426,4248.7759,4121.8403,76602.2188,118752.2422,159432.0625,159.651215
4603.9673,4196.7188,4246.5186,3954.7163,143330.4688,156238.3906,171664.0781,128449.8594,4057.0427,3794.6555,4609.4438,4024.2527,122708.9063,112452.6250,131995.0313,141789.8750,4171.4614,3433.0938,3925.3015,76927.6797,117989.6719,159633.2656,159.655212
4907.4146,4388.3848,4322.0674,3964.2605,143339.1875,156213.2500,171671.5000,128336.0234,4072.7783,3796.3096,4691.0498,4019.6035,122731.4609,112422.2266,132003.2500,141616.2500,4202.8652,3256.8501,3913.1868,76980.9453,117967.5625,159650.7188,159.659210
1664.9590,1452.7292,3526.0547,3880.6650,143283.9375,156525.3281,171658.5781,129577.8828,3765.4419,3793.0686,3528.5803,4205.6372,122600.5469,112761.4141,131852.3594,142907.9219,4201.8374,4200.1831,4101.9028,76681.9922,118724.8203,159454.9688,159.663208
-2661.7798,-2584.5098,1803.4504,3827.5574,143251.3906,156730.8125,171650.0156,130391.8672,3564.0750,3804.0879,1285.6499,4322.0225,122510.5547,112984.9141,131763.8906,143801.7813,4169.3604,4631.7061,4221.3726,76462.8359,119173.2422,159325.4844,159.667206
266.5446,419.9669,3141.0459,3875.4348,143269.2656,156567.9063,171650.2344,129746.4219,3741.5479,3811.2405,3130.9651,4222.4902,122564.1563,112811.6172,131841.6719,143185.3125,4148.7520,4255.6157,4124.6792,76596.6563,118745.7422,159424.5000,159.671204
4575.7817,4168.9800,4242.4282,3953.1965,143318.5781,156230.5938,171657.5625,128437.6094,4055.5898,3790.0288,4604.8838,4024.0068,122699.5156,112444.0469,131984.7031,141781.6406,4174.9482,3479.0935,3928.6543,76922.9922,117982.6719,159627.3906,159.675201
4907.8618,4387.0659,4323.8555,3965.2664,143329.4688,156205.3594,171666.8438,128317.1797,4076.0415,3794.8342,4694.1343,4019.7153,122724.1016,112412.5938,131995.4063,141600.5469,4206.8218,3332.3767,3916.0032,76978.3359,117955.4297,159645.9844,159.679199
1705.8180,1475.6398,3531.2402,3887.4375,143279.6094,156521.0313,171658.3438,129560.9453,3774.0024,3806.3455,3536.6494,4211.2476,122597.2109,112755.0000,131848.9375,142894.4219,4203.6479,4208.7886,4103.1094,76678.1719,118709.1250,159448.4844,159.683197
-2615.7351,-2550.3115,1805.2610,3822.9976,143236.3906,156717.7813,171640.1563,130370.7891,3579.6318,3798.4329,1289.7850,4317.2168,122497.7891,112971.1406,131750.1875,143783.1563,4168.2871,4630.7002,4220.4785,76454.8984,119158.8906,159315.9844,159.687195
312.5221,467.9114,3108.6357,3873.8254,143257.1094,156560.7344,171643.4844,129735.9141,3750.7566,3808.8936,3093.5037,4220.9478,122553.6953,112803.0156,131830.6563,143178.5469,4148.9976,4258.9014,4126.8022,76588.6484,118737.4922,159415.6094,159.691193
4586.6670,4181.6089,4248.2393,3961.3772,143315.8906,156231.5313,171659.1406,128434.8438,4062.1389,3807.3738,4609.9575,4032.3215,122696.8984,112442.9688,131981.9688,141784.0156,4174.9482,3479.2947,3931.8059,76916.6406,117975.0938,159620.0156,159.695190
4912.6450,4391.9390,4322.4697,3962.7854,143316.5469,156193.3750,171658.8594,128294.5391,4074.3428,3789.8723,4694.2017,4016.4966,122714.4453,112400.3281,131984.8281,141581.8438,4206.4419,3359.6235,3916.1597,76973.9922,117941.9297,159640.7813,159.699188
1675.0397,1433.0820,3472.5669,3887.5718,143269.4063,156512.2969,171653.0313,129538.3203,3774.4941,3803.1045,3485.5085,4209.6382,122590.3281,112744.5859,131841.5156,142875.8125,4205.8828,4210.4204,4104.8081,76676.4531,118695.8984,159444.8438,159.703186
-2669.7146,-2622.7312,1769.6545,3833.7041,143236.3281,156719.9844,171644.0000,130364.0859,3567.1594,3816.5825,1267.0533,4327.6777,122498.3281,112970.5625,131750.5938,143781.0313,4171.7964,4634.4331,4224.6138,76452.4219,119149.8359,159310.6875,159.707184
267.8409,417.5976,3132.1721,3869.2881,143242.3125,156550.1406,171633.8281,129722.3438,3734.7305,3801.6741,3120.3257,4218.5117,122541.0391,112791.6563,131816.6875,143168.2344,4148.1709,4263.0142,4127.2720,76579.9766,118727.8359,159404.5469,159.711182
4569.6128,4167.7285,4238.8965,3955.1187,143299.3750,156219.9375,171648.1094,128418.5000,4056.2827,3795.6836,4600.4136,4028.3652,122683.1563,112430.3906,131967.4063,141771.6094,4175.2832,3385.6855,3932.1187,76908.6875,117964.8828,159609.9375,159.715179
4922.4351,4402.2651,4329.0410,3969.2002,143312.1094,156190.5000,171658.2188,128279.9844,4081.8308,3805.2502,4702.6055,4022.2856,122710.8516,112394.5391,131981.5000,141572.3438,4205.8384,3192.7678,3914.5278,76967.9375,117925.9922,159631.5938,159.719177
1723.2748,1505.0323,3544.7183,3882.8555,143253.8906,156496.4688,171642.1719,129509.5313,3773.1531,3796.6448,3561.7056,4204.1616,122577.6563,112728.1797,131827.9688,142850.1250,4202.8208,4202.9995,4101.1650,76669.6797,118676.7813,159435.4063,159.723175
-2637.5059,-2586.9014,1755.2377,3825.1880,143217.5156,156703.8125,171630.6094,130339.2969,3585.7114,3803.1716,1258.7161,4319.6758,122482.9922,112953.7734,131734.1094,143759.0781,4169.1592,4631.5493,4222.0430,76444.5078,119135.3047,159301.0156,159.727173
299.2004,413.0826,2983.9131,3877.8486,143240.2500,156552.4375,171635.9844,129721.0078,3753.9753,3821.6565,2985.2766,4227.8545,122538.7891,112791.1016,131814.4844,143172.0625,4148.9531,4267.4395,4129.8647,76572.4688,118719.3438,159395.2031,159.731171
4570.3506,4167.9521,4234.5376,3955.7446,143289.3906,156212.9844,171642.9531,128407.6797,4056.0369,3798.3882,4596.5020,4029.5276,122674.1016,112422.1875,131957.7031,141764.9688,4175.5293,3499.0984,3933.8174,76900.3438,117954.0625,159599.9688,159.735168
4921.9209,4403.1816,4325.3530,3964.1711,143296.7656,156176.4531,171648.3594,128255.6250,4078.6792,3790.4758,4699.7446,4016.3401,122698.8906,112380.0078,131968.3594,141550.5313,4208.6099,3347.1960,3917.5901,76964.5156,117913.2734,159626.2969,159.739166
1741.9385,1533.3073,3507.3015,3893.8750,143254.2031,156497.4375,171646.4219,129497.1953,3785.3796,3814.1462,3530.9719,4212.6553,122579.0391,112726.3047,131829.4063,142842.0781,4207.7603,4204.0723,4105.5234,76669.5859,118665.1406,159432.9375,159.743164
-2643.1606,-2589.5835,1821.1754,3830.7759,143212.4688,156700.4688,171630.0469,130327.8984,3589.6006,3811.9558,1328.5206,4324.8613,122479.3516,112948.9688,131729.8594,143751.3750,4172.9365,4635.2153,4226.4688,76441.9766,119126.4375,159296.7031,159.747162
254.2287,406.4218,3081.7244,3870.6292,143223.1094,156539.7188,171624.7813,129705.8516,3746.3535,3803.5291,3065.0051,4223.1606,122525.1719,112778.9219,131799.4219,143159.8125,4152.1494,4274.4136,4134.4912,76568.6719,118715.5625,159390.9375,159.751160
4564.7402,4167.3262,4240.9976,3961.9807,143285.2500,156213.2500,171643.4844,128403.9297,4061.9824,3808.2007,4601.5313,4037.4177,122670.9297,112420.5313,131954.1875,141765.8281,4179.5527,3409.1104,3939.4055,76897.1250,117949.4375,159595.1563,159.755157
4935.7344,4412.7705,4334.2935,3972.1060,143294.0156,156174.5781,171649.5938,128242.5000,4087.4634,3804.9373,4710.5405,4024.0068,122696.6094,112375.5625,131965.9063,141540.9375,4212.2085,3188.5879,3920.2500,76961.5000,117899.7891,159619.4063,159.759155
1814.4922,1580.7823,3548.4734,3887.6387,143237.3906,156481.2969,171634.9531,129468.2031,3778.9199,3798.0977,3573.0603,4206.4639,122565.6953,112709.4063,131814.8438,142814.8125,4209.5488,4200.4517,4106.3506,76665.7891,118648.9531,159425.1094,159.763153
-2619.9819,-2577.5361,1809.2395,3831.4465,143202.8906,156693.2969,171625.0469,130312.0938,3569.5288,3810.5923,1324.1396,4326.2695,122471.2578,112939.7656,131721.0781,143738.2813,4174.4785,4636.6904,4228.1899,76437.2422,119114.8125,159288.7344,159.767151
232.3240,352.3529,3032.5952,3871.5454,143214.3281,156534.6875,171620.3906,129697.5313,3741.0337,3810.7712,3037.6467,4226.0439,122516.9063,112772.2109,131790.5469,143155.7031,4150.0259,4275.9331,4133.5972,76559.3281,118705.0625,159379.6406,159.771149
4550.2788,4153.5127,4226.2007,3952.5483,143266.2031,156198.2344,171630.1250,128385.0625,4052.6394,3791.8169,4588.0752,4029.9746,122655.1016,112405.7344,131937.1563,141750.5938,4177.5635,3508.2849,3938.6230,76888.5703,117939.0625,159585.7031,159.775146
4939.5566,4417.8892,4332.6846,3969.4014,143281.4063,156163.3438,171641.7813,128220.6406,4085.8093,3799.8857,4710.0039,4020.6094,122687.3359,112363.9844,131956.0625,141523.6250,4209.5708,3307.5886,3919.2217,76956.7656,117886.4063,159613.9531,159.779144
1901.1052,1677.4536,3565.1702,3890.2986,143229.6875,156473.2969,171631.3906,129447.2813,3785.1560,3806.6138,3593.8252,4207.6265,122559.7266,112699.9922,131808.6406,142798.0313,4207.4478,4187.7559,4104.0259,76659.9766,118631.2109,159417.2031,159.783142
-2594.7246,-2545.6177,1836.4863,3826.6409,143188.1563,156680.6094,171615.6875,130291.5547,3588.7065,3802.6575,1349.4641,4321.8438,122459.9297,112927.0625,131708.6094,143720.8438,4175.1494,4637.1821,4228.9497,76431.0703,119102.0703,159280.4063,159.787140
115.2903,247.7691,3057.0032,3870.9868,143203.5781,156528.4375,171614.8281,129688.0547,3745.4817,3810.0112,3043.7710,4227.1172,122507.8516,112764.6563,131780.9844,143150.2188,4151.0767,4280.6494,4136.2349,76551.4609,118696.4063,159370.0313,159.791138
4519.7236,4121.7285,4231.6099,3957.5549,143260.9688,156196.1719,171629.2344,128378.7188,4056.1487,3803.2385,4591.9644,4035.4731,122650.2734,112401.8438,131932.1719,141749.0781,4178.6587,3518.7681,3940.7688,76881.7500,117929.8359,159577.4063,159.795135
4931.1968,4406.2886,4329.2646,3965.0430,143267.0625,156150.3594,171632.4844,128197.4844,4083.0154,3791.5039,4707.9478,4015.8037,122675.7578,112349.9922,131943.6875,141503.5938,4210.2417,3336.4224,3918.9536,76951.1563,117871.7188,159606.3594,159.799133
1792.3864,1571.3052,3584.9739,3887.9963,143217.1719,156461.7344,171623.4844,129422.4297,3782.6304,3802.0986,3620.3567,4203.9385,122549.9844,112686.8750,131798.4688,142776.9688,4206.4194,4188.7393,4102.0815,76654.9453,118614.7109,159410.0625,159.803131
-2631.5825,-2559.8782,1850.2550,3829.1665,143180.0781,156674.2969,171611.7031,130276.4219,3564.4548,3809.5642,1368.3514,4324.2354,122452.4609,112918.3750,131700.9063,143709.5781,4172.7578,4634.4775,4226.7373,76423.2969,119087.1641,159270.2344,159.807129
111.5128,270.1208,3053.8516,3864.5493,143187.3438,156516.4688,171603.6563,129673.0391,3730.9978,3800.0647,3035.0986,4222.8701,122493.3203,112751.5391,131765.3906,143138.3125,4148.7520,4281.9014,4135.3633,76541.9375,118685.9453,159358.6094,159.811127
4514.4263,4125.3940,4227.0278,3954.9846,143248.4375,156188.3281,171621.6875,128367.0000,4053.8464,3798.7905,4586.1753,4035.0261,122639.4141,112392.4766,131920.6406,141741.4844,4177.0493,3473.5950,3942.0430,76874.1094,117920.8516,159567.8906,159.815125
4939.7803,4415.1621,4333.6899,3968.6638,143260.2344,156144.0938,171629.5000,128180.0781,4086.5469,3801.1152,4713.7368,4018.6870,122669.5859,112341.4922,131937.3125,141490.2969,4206.7769,3292.8142,3917.0090,76944.7344,117855.4453,159597.1719,159.819122
1845.9412,1603.8270,3562.0857,3887.1694,143206.1719,156451.1250,171617.2500,129398.5547,3785.8267,3798.0977,3599.7261,4202.4629,122541.6250,112674.8906,131789.3281,142755.9531,4207.7383,4181.4746,4103.0874,76652.6484,118600.4297,159404.8594,159.823120
-2631.7837,-2561.3533,1706.9803,3829.8372,143170.9688,156668.0156,171607.3281,130260.7344,3584.3479,3809.4299,1224.8531,4325.1519,122445.7813,112910.4375,131693.7500,143697.5469,4174.5903,4636.3330,4228.9053,76420.5703,119078.3359,159265.8594,159.827118
59.9250,274.1888,2974.9277,3874.6301,143186.4844,156519.1406,171606.8125,129672.0313,3739.2456,3818.4377,2940.7742,4233.8447,122492.7188,112752.3203,131764.6719,143142.3750,4151.2554,4288.3159,4139.1631,76538.2266,118681.5703,159353.8750,159.831116
4490.8901,4104.5850,4221.9761,3950.7825,143233.9688,156177.4688,171612.3125,128352.4531,4048.6606,3792.5769,4579.5596,4032.0310,122626.9844,112381.1250,131907.3438,141730.9688,4176.4458,3532.7153,3941.7075,76865.5469,117910.8125,159558.3906,159.835114
4940.9648,4415.7437,4332.9751,3967.6357,143248.7188,156134.5469,171622.9063,128159.8438,4087.9775,3797.0696,4714.5190,4016.9436,122660.7344,112330.5234,131927.9063,141473.7500,4209.1240,3355.1084,3917.8137,76939.9063,117841.6563,159590.3750,159.839111
1866.5718,1647.1223,3628.2690,3896.0208,143203.5781,156448.1719,171618.2813,129382.6406,3795.3037,3815.3308,3672.0339,4208.8110,122539.5469,112669.3047,131787.1250,142743.7813,4209.1465,4186.3921,4103.1992,76647.5703,118582.7969,159396.5000,159.843109
-2601.5864,-2529.6138,1890.3317,3828.8313,143159.1563,156657.5781,171600.6406,130243.0078,3591.7688,3806.3232,1419.6487,4324.0791,122436.1250,112899.3281,131682.8125,143682.1563,4177.1162,4638.7690,4231.1851,76415.2266,119065.9297,159257.8125,159.847107
81.4051,231.2511,3022.6934,3872.1489,143174.6094,156512.1094,171600.5469,129662.1328,3744.9006,3811.8440,3005.0354,4232.7051,122483.1719,112744.4063,131754.0469,143135.7188,4155.0327,4295.6924,4144.1475,76532.6172,118675.2891,159346.4531,159.851105
4503.2729,4117.2583,4228.5923,3962.0254,143235.0938,156182.2344,171617.4688,128352.4531,4060.5967,3814.0569,4587.3154,4043.7209,122628.2109,112383.3828,131908.5625,141736.2500,4179.4634,3491.7000,3947.2732,76861.6797,117904.6406,159552.9844,159.855103
4945.6362,4419.7891,4333.2876,3966.4509,143237.5469,156124.2969,171616.2344,128139.5078,4088.2009,3794.7673,4716.1733,4015.5801,122651.2344,112318.7891,131917.6719,141455.9375,4209.5264,3324.2407,3918.8865,76934.1406,117826.3672,159581.6406,159.859100
1908.2578,1659.6616,3536.8059,3889.6057,143187.8125,156433.3125,171607.5469,129354.7969,3789.2688,3801.8752,3583.8562,4202.0386,122526.9141,112653.3672,131773.7500,142718.4063,4209.2578,4183.2627,4102.8862,76642.9922,118566.7891,159389.4531,159.863098
56.8628,289.0304,2963.8188,3870.1821,143162.2656,156503.4688,171592.8438,129650.7969,3732.7859,3811.1064,2925.5081,4232.8838,122471.8438,112734.7266,131741.9375,143128.4063,4152.1494,4297.2568,4142.6499,76522.8906,118665.3594,159335.7656,159.867096
4486.1738,4109.7705,4220.7466,3954.2021,143217.6563,156169.2656,171605.6875,128336.5781,4052.2371,3797.1812,4576.9663,4038.6248,122613.5781,112370.3281,131892.6563,141723.7500,4181.4077,3510.7214,3949.5083,76855.3750,117897.6250,159545.5469,159.871094
4958.1309,4432.8872,4342.9663,3975.6824,143236.7656,156124.5625,171619.4219,128128.5547,4098.2144,3810.7712,4727.3042,4024.2749,122651.7500,112317.0859,131918.3438,141450.4844,4214.1084,3243.0815,3922.0381,76933.6250,117816.6641,159579.2031,159.875092
1954.1682,1710.1543,3601.4470,3894.2102,143181.9844,156427.4063,171605.8438,129336.0156,3797.3154,3809.7654,3651.4702,4205.3687,122523.0703,112646.0391,131769.4688,142703.5938,4210.9790,4173.3389,4104.2271,76640.8438,118552.7969,159384.6094,159.879089
-2592.6682,-2551.4292,1846.4329,3827.7139,143138.8750,156641.6875,171589.4375,130209.8359,3592.6851,3804.5574,1388.8256,4323.9224,122419.8984,112880.6406,131665.1563,143655.7344,4178.4351,4640.1328,4233.7109,76405.8125,119043.5547,159244.3438,159.883087
18.3508,177.1376,2983.4214,3873.6243,143157.2344,156502.7813,171592.1406,129646.3516,3745.1018,3820.0918,2978.0569,4238.0918,122467.7031,112732.0469,131737.5156,143128.5469,4154.6528,4303.5825,4146.8296,76518.5781,118660.4688,159330.2031,159.887085
4485.9058,4110.7764,4218.9810,3960.0808,143213.5938,156168.7031,171605.8281,128332.4453,4057.1992,3810.4805,4578.1289,4045.2632,122609.5938,112367.7813,131888.7031,141724.6563,4182.3687,3556.3413,3952.1907,76849.2734,117890.2266,159538.2344,159.891083
4957.3486,4428.9756,4337.2666,3968.8650,143220.3438,156109.6719,171608.3281,128104.1250,4092.5820,3794.9014,4722.6553,4017.3906,122638.8516,112301.8203,131904.1406,141428.6094,4214.2871,3365.4797,3923.1558,76929.4688,117804.2578,159573.7969,159.895081
2047.5538,1769.6770,3596.1274,3896.6912,143174.7656,156420.3125,171603.1250,129315.6563,3798.9023,3811.1287,3653.7053,4207.1123,122518.2031,112637.3906,131764.0000,142686.5625,4213.8179,4181.2065,4106.2612,76639.9063,118540.0781,159381.9531,159.899078
-2554.2903,-2521.3662,1863.9342,3831.5583,143132.6563,156636.5781,171587.3906,130196.5156,3583.4539,3812.8274,1417.8828,4327.3198,122414.2188,112873.6875,131659.0938,143645.7344,4178.6362,4639.9761,4233.4648,76399.1094,119029.7188,159235.2344,159.903076
-25.0787,137.2621,2996.0947,3865.0413,143138.7344,156488.4688,171579.4219,129629.9688,3734.1716,3803.9985,2981.0298,4231.4756,122451.7734,112717.5156,131720.2344,143114.4375,4153.5127,4306.3540,4146.9858,76508.6563,118649.9609,159318.8438,159.907074
4460.5142,4085.8540,4213.2588,3955.0964,143198.8125,156157.9531,171596.1719,128317.9609,4051.5217,3803.5291,4571.0659,4041.6870,122596.6953,112355.9766,131875.0938,141713.9063,4179.6196,3530.9050,3950.9612,76839.0156,117878.2656,159527.0156,159.911072
4956.9014,4430.4287,4337.1099,3968.2615,143209.7031,156099.8594,171601.6719,128084.3203,4092.4031,3800.1987,4724.2871,4016.0049,122629.1328,112290.1953,131894.1250,141412.8438,4209.7495,3235.6160,3918.3501,76919.2578,117785.2656,159561.7656,159.915070
2026.2079,1775.3096,3590.8523,3885.9399,143154.3281,156400.6563,171587.6719,129283.6016,3792.1299,3795.3037,3650.3750,4195.5342,122500.9219,112616.8203,131745.7188,142657.2969,4207.8945,4155.2563,4099.8911,76629.7344,118518.8672,159369.7813,159.919067
-2574.1162,-2536.2300,1787.0890,3826.6855,143118.2813,156624.8594,171577.7656,130175.5938,3573.9768,3806.5913,1342.8257,4323.0059,122402.3516,112860.4609,131646.6563,143628.6875,4174.7690,4636.0420,4230.2017,76391.2422,119015.6797,159226.1719,159.923065
-134.4681,33.2147,2963.8635,3865.1082,143129.4531,156482.9219,171574.2813,129621.1797,3726.6167,3810.7263,2953.2913,4233.9565,122442.7813,112710.1016,131710.7344,143110.0625,4149.6685,4306.3765,4144.7061,76497.9922,118638.5625,159306.2031,159.927063
4427.3887,4060.1719,4201.4570,3946.8262,143181.0938,156144.4688,171583.6250,128301.3359,4042.4023,3791.4592,4558.9512,4035.9873,122580.7656,112341.5156,131858.0938,141700.8281,4175.9316,3566.8018,3948.7485,76827.7734,117865.9531,159513.6406,159.931061
4958.7344,4428.8638,4336.9087,3967.3899,143198.6406,156090.5469,171595.2969,128064.2734,4093.1853,3797.3154,4725.0469,4015.1108,122620.0313,112278.8672,131884.5625,141396.0313,4209.6826,3358.8635,3918.3501,76914.4063,117770.9766,159553.9219,159.935059
2079.4275,1794.6663,3604.1741,3893.6960,143151.4531,156397.7188,171588.5469,129267.8438,3801.5398,3809.2737,3669.5081,4202.9326,122498.9766,112611.6406,131743.6094,142645.1406,4210.1299,4167.8179,4101.5449,76628.2109,118505.4141,159365.3125,159.939056
-2545.4836,-2509.6091,1790.0841,3823.4221,143105.1563,156613.9063,171569.5000,130156.5313,3589.4888,3801.2939,1351.0511,4320.5923,122391.7344,112848.5000,131634.9219,143612.1406,4175.2832,4636.6011,4231.1401,76386.2578,119004.1016,159219.2969,159.943054
-123.8063,52.8619,2955.5488,3863.9236,143118.4375,156476.2813,171568.2813,129611.2109,3733.3669,3808.0442,2938.9189,4233.5542,122433.7109,112702.3828,131700.8750,143103.6875,4150.9868,4311.1597,4147.2544,76492.3828,118632.0781,159299.7656,159.947052
4425.0640,4055.7910,4206.9111,3953.6436,143177.6719,156144.5000,171584.4063,128297.9766,4049.0408,3805.8984,4563.6226,4043.1174,122577.5000,112339.7266,131854.6406,141702.2031,4177.5635,3566.3772,3952.0117,76821.7109,117858.1953,159506.4063,159.951050
4957.5049,4429.6909,4335.8359,3965.0652,143186.7500,156079.6719,171588.0313,128044.1094,4092.2466,3792.2192,4725.4268,4012.2722,122610.4688,112267.1328,131874.2656,141379.0313,4210.2861,3357.9919,3919.1323,76908.6875,117756.8281,159546.5000,159.955048
1982.5103,1709.3496,3578.7600,3891.1479,143139.6094,156386.2813,171581.2344,129242.9688,3800.9810,3804.6692,3659.5168,4197.6572,122489.7656,112598.4922,131733.9375,142623.6094,4209.3696,4164.1743,4099.8018,76622.3125,118487.5781,159357.3750,159.959045
-2609.4097,-2586.2756,1769.4310,3830.5078,143102.2969,156612.2813,171570.3125,130146.2891,3575.6084,3815.8225,1352.0123,4326.4707,122388.8516,112844.2969,131631.9375,143605.8906,4175.5737,4636.5562,4230.8721,76379.8438,118990.7109,159210.6875,159.963043
-150.8966,14.1710,2934.0911,3859.5203,143104.2031,156466.1875,171559.0469,129598.9609,3719.1736,3801.4058,2916.9473,4231.5425,122420.6563,112690.9453,131686.7031,143094.1719,4149.2212,4313.7969,4146.8071,76481.8984,118621.7344,159287.8438,159.967041
4411.6528,4045.6208,4200.4292,3950.2014,143164.5781,156136.0313,171576.4063,128285.5547,4045.5986,3800.0422,4556.5146,4042.0222,122566.5000,112329.8750,131842.9375,141693.8906,4176.2666,3468.0742,3952.5930,76813.9141,117849.6797,159497.8594,159.971039
4968.8818,4440.8442,4344.3071,3973.3801,143184.7500,156078.8125,171589.6406,128032.3047,4100.8521,3809.7207,4735.6865,4020.0952,122609.1484,112263.7344,131872.8906,141372.0938,4210.3755,3244.1768,3919.5571,76905.0625,117744.4922,159541.2500,159.975037
2065.6587,1805.9315,3618.2778,3889.9634,143127.6719,156374.5625,171573.9219,129218.5156,3801.6292,3800.1094,3690.5188,4196.1377,122480.4922,112585.8906,131723.9063,142601.9063,4209.9731,4166.2754,4099.9580,76619.1641,118472.6250,159351.6406,159.979034
-2554.2903,-2518.3486,1723.7218,3826.9314,143088.7344,156601.5000,171561.6875,130126.4453,3595.0769,3807.9771,1299.8881,4324.3472,122378.1875,112832.5156,131620.5000,143588.9375,4176.6689,4637.5396,4232.4370,76375.7734,118979.8750,159204.4063,159.983032
-111.3787,39.1603,2820.4324,3870.2043,143104.3281,156470.2969,171563.0938,129599.5859,3737.3457,3822.1035,2803.3333,4243.1211,122420.5469,112692.6406,131686.6094,143099.6250,4152.7529,4321.2178,4151.7695,76478.3672,118617.3047,159282.6875,159.987030
4407.5625,4038.7141,4193.9917,3947.9885,143152.4375,156127.4688,171569.2500,128274.5781,4042.4023,3797.2930,4548.6914,4041.3071,122555.7031,112320.5703,131831.2031,141686.4531,4176.8257,3572.6804,3954.4258,76806.5781,117841.2109,159489.3281,159.991028
4963.0708,4434.8320,4336.8862,3964.8865,143166.5781,156062.4375,171576.7031,128005.8906,4094.4595,3794.1414,4729.1597,4011.4451,122593.8594,112246.2344,131856.8438,141348.3750,4207.5591,3337.0483,3916.6960,76896.7969,117727.5078,159531.1875,159.995026
2043.8210,1772.7391,3615.3274,3895.0149,143122.9375,156369.9219,171572.6563,129200.8359,3808.3794,3815.2415,3703.7734,4199.2666,122475.7500,112577.8906,131719.3438,142588.0938,4206.9556,4152.5962,4096.5830,76611.5859,118453.6250,159341.7969,160.000000
-2582.3862,-2559.0510,1835.3240,3823.5564,143075.8750,156589.7500,171553.4063,130107.2891,3591.7910,3807.1948,1430.6458,4320.9048,122366.5391,112819.3984,131607.9375,143572.4844,4173.2495,4634.1201,4229.5981,76366.3828,118964.4531,159193.7031,160.003998
-218.9800,-47.1175,2905.8162,3856.4358,143082.1563,156452.3906,171546.6406,129578.8281,3724.8958,3800.7351,2889.5439,4232.1016,122401.3203,112674.4688,131666.1250,143081.5781,4147.8799,4319.8770,4148.7964,76466.2500,118604.9688,159270.1719,160.007996
4383.0430,4023.1128,4193.0532,3948.3909,143142.9375,156121.8281,171563.7813,128264.8750,4043.1621,3805.7419,4548.7808,4042.8716,122545.6953,112312.1484,131821.1719,141681.0938,4170.8579,3476.2996,3950.6260,76793.0625,117826.0781,159474.0625,160.011993
4967.8984,4440.8667,4339.4346,3966.5627,143158.1563,156054.7969,171572.3906,127988.8594,4097.0073,3799.8188,4733.2944,4012.8979,122585.9922,112236.6016,131848.5313,141334.4063,4206.4419,3230.4082,3916.1597,76889.5313,117711.5703,159521.3750,160.015991
2109.9153,1876.6971,3615.5957,3887.3035,143105.0938,156352.5313,171560.3438,129171.5313,3799.6177,3795.7285,3698.1853,4191.8237,122461.9141,112560.5000,131704.2969,142560.5000,4208.7217,4154.9434,4097.6558,76608.4531,118438.9609,159336.2969,160.019989
-2541.4155,-2502.4341,1732.9977,3828.7642,143070.6719,156586.5781,171552.5000,130095.3750,3579.6541,3813.6099,1326.0619,4326.0459,122362.6797,112814.2344,131603.7813,143564.1563,4175.6855,4636.0645,4232.1685,76363.2344,118954.4844,159188.3750,160.023987
-164.3300,-17.0097,2790.3247,3863.9907,143079.4375,156453.2188,171547.9531,129576.8125,3727.0190,3814.5039,2777.4053,4240.8408,122398.8438,112673.5313,131663.2344,143084.0000,4150.3613,4326.1577,4152.6636,76462.0313,118600.3828,159264.8750,160.027985
4385.1440,4023.7163,4185.0513,3945.2615,143130.7500,156113.7188,171557.1875,128253.1172,4039.1611,3793.7615,4539.5942,4042.1116,122536.8203,112304.1875,131811.1563,141673.1250,4176.4902,3570.6016,3957.2197,76792.2734,117824.2188,159473.1406,160.031982
4971.8994,4443.7725,4341.4238,3967.7698,143149.7500,156047.7656,171568.5625,127972.0469,4099.1533,3800.7351,4736.2896,4013.9038,122579.8438,112228.2813,131841.7813,141321.1563,4208.8555,3261.1641,3918.2383,76886.5313,117700.1719,159516.2656,160.035980
2136.9607,1891.1587,3633.2537,3892.6680,143100.5313,156347.8281,171559.6250,129154.4297,3808.9607,3807.1501,3719.2854,4195.1543,122458.2969,112553.5938,131700.2344,142546.7500,4209.7944,4133.6646,4098.3042,76604.6797,118423.6484,159329.3906,160.039978
-2544.6343,-2509.0278,1809.5302,3821.5000,143054.3125,156572.2813,171541.5000,130072.9297,3591.2324,3800.8916,1405.2542,4319.6084,122349.4922,112799.5078,131589.3125,143543.6563,4175.9985,4636.3774,4232.5483,76357.3125,118941.9219,159180.4219,160.043976
-343.8145,-173.9189,2876.2893,3860.7720,143067.9063,156445.8281,171541.4219,129566.4219,3727.8015,3811.5535,2863.4595,4240.6396,122389.1172,112665.2813,131652.7969,143077.2656,4150.6743,4330.5161,4154.6079,76454.7656,118592.7891,159256.4688,160.047974
4339.9712,3986.9253,4185.0957,3946.3792,143122.5938,156109.0000,171553.2500,128245.9453,4040.3013,3802.6575,4540.4438,4044.6150,122528.9766,112298.1328,131802.9375,141670.9844,4174.0762,3584.1021,3956.5044,76782.2188,117814.0078,159462.4063,160.051971
4961.9307,4430.1382,4332.6846,3957.7339,143130.4844,156029.5625,171554.1719,127944.3750,4090.1008,3785.1785,4728.8242,4003.7114,122563.5078,112209.7109,131824.5781,141296.9531,4203.7593,3330.6111,3913.0974,76876.4297,117682.1953,159505.7969,160.055969
2147.5779,1869.4999,3623.3293,3887.2588,143085.6250,156333.2656,171549.1563,129127.0547,3802.9258,3800.0647,3712.8035,4190.0801,122446.0000,112537.8359,131687.5156,142522.9844,4205.2124,4140.5713,4093.2524,76595.8750,118403.6250,159319.2344,160.059967
2147.5779,1869.4999,3623.3293,3887.2588,143085.6250,156333.2656,171549.1563,129127.0547,3802.9258,3800.0647,3712.8035,4190.0801,122446.0000,112537.8359,131687.5156,142522.9844,4205.2124,4140.5713,4093.2524,76595.8750,118403.6250,159319.2344,160.063965
-2516.0017,-2488.5537,1799.0024,3824.7856,143047.7344,156566.7969,171538.7656,130059.6328,3570.5793,3808.7817,1396.0675,4322.8940,122343.0313,112791.8594,131582.4375,143533.7500,4174.9482,4635.6177,4232.0347,76349.3750,118926.9922,159169.5625,160.067963
-283.7330,-111.5352,2887.7559,3853.4629,143050.7813,156432.1875,171529.4688,129550.5703,3713.4292,3799.6399,2868.1311,4234.6050,122373.4688,112650.7344,131635.8750,143063.6250,4147.8579,4331.5220,4153.4458,76443.7656,118580.6016,159243.4844,160.071960
4345.0000,3993.9883,4178.9712,3941.4617,143107.9844,156098.7188,171543.5313,128232.4922,4034.1992,3795.7507,4532.3970,4041.7092,122515.8516,112286.3125,131789.3750,141661.1250,4169.2036,3565.1255,3954.6716,76771.6719,117802.4531,159450.5938,160.075958
4972.8828,4443.0347,4339.5015,3964.3499,143127.8438,156027.9844,171555.0156,127933.0234,4097.4995,3798.7458,4736.8711,4010.3274,122560.9844,112205.3750,131821.7813,141289.6406,4204.0947,3260.9407,3915.0867,76873.0313,117670.6641,159500.0938,160.079956
2182.0889,1913.1528,3644.5188,3890.7456,143097.8594,156343.0938,171556.2656,129115.7891,3812.4028,3798.5894,3758.7585,4191.6670,122443.1406,112530.3203,131683.7031,142513.3594,4219.3833,4131.8315,4107.9824,76593.7266,118388.8281,159313.6563,160.083954
-2539.0686,-2511.1514,1766.4136,3836.1851,143088.3594,156603.3750,171563.1719,130070.3594,3603.3694,3815.6438,1459.3007,4333.1982,122348.7734,112794.1172,131587.4688,143545.5313,4204.0503,4658.4165,4264.6230,76347.8125,118917.3359,159165.0156,160.087952
-436.1719,-256.3969,2855.3906,3871.8137,143100.5938,156478.4375,171560.9844,129576.7656,3734.9316,3822.5728,2888.4265,4253.8271,122383.9297,112661.0781,131645.9375,143091.9063,4177.9653,4359.8643,4187.3311,76439.2734,118574.1641,159235.5938,160.091949
4298.7769,3954.0012,4175.2388,3951.5200,143150.2031,156136.4688,171567.7656,128249.6563,4047.4761,3801.2939,4538.8794,4051.8347,122519.2031,112289.1484,131791.7656,141679.3906,4200.3843,3643.6472,3988.6909,76765.7422,117793.0391,159440.8906,160.095947
4972.2349,4440.1514,4341.6475,3975.7271,143171.1875,156064.2969,171579.7188,127942.1641,4114.1514,3805.7866,4748.4268,4019.4246,122565.9844,112206.4922,131826.3594,141299.8594,4233.8896,3452.4504,3946.3567,76868.2500,117655.3984,159491.2188,160.099945
2220.3999,1931.8835,3648.1174,3906.4143,143127.7344,156365.8281,171575.3125,129117.3281,3830.5078,3821.6565,3767.7441,4204.7651,122450.1641,112533.1172,131690.6563,142517.7500,4235.9458,4167.9521,4124.9917,76591.5781,118374.5859,159308.6563,160.103943
