Fp1,Fp2,F3,F4,C3,C4,P3,P4,O1,O2,F7,F8,T7,T8,P7,P8,Fz,Cz,Pz,AFz,Cpz,POz,TimeStamp
4131.8984,3744.8782,3893.6292,3667.4517,122206.7031,138420.0781,158285.2344,103889.5859,3882.6321,3616.3557,4364.0884,3796.9800,103885.5156,91022.3594,110610.0156,117127.6719,3873.9148,3273.1670,3764.1230,55959.8906,94301.9375,142077.5781,217.215820
4474.8862,3980.1526,3987.8640,3679.8347,122218.4609,138401.6875,158293.1563,103793.9219,3896.3113,3623.5305,4442.8560,3797.2708,103910.3047,90998.8438,110619.9844,116972.5547,3904.4026,3202.7366,3755.2271,56010.3164,94289.3516,142095.5781,217.219818
836.9387,522.8967,2535.0676,3590.2041,122157.8672,138708.5313,158282.9844,105033.8359,3586.2478,3615.5510,3029.3318,3981.5161,103774.4297,91333.8281,110465.3125,118259.7031,3903.0168,4085.3623,3945.1721,55709.7539,95045.2656,141895.8125,217.223816
-2839.5432,-2848.1038,-292.5173,3532.6038,122120.6328,138905.1719,158275.4531,105831.3750,3361.9480,3616.5791,239.2978,4088.4915,103679.5469,91548.7188,110373.5547,119135.1953,3868.7292,4486.1069,4060.4402,55489.3203,95481.4609,141761.3750,217.227814
-304.2296,-254.0723,1993.9543,3582.2468,122142.4688,138742.1719,158274.5000,105179.4375,3558.4199,3631.1973,2522.5508,3989.0486,103736.1406,91374.8672,110453.5547,118511.5391,3846.0422,4102.5957,3957.8008,55623.6328,95047.1719,141860.4219,217.231812
4117.3027,3731.0872,3894.7690,3662.1321,122195.8906,138410.0156,158275.9531,103882.3438,3877.9382,3609.8289,4356.8911,3792.1746,103875.1719,91012.7266,110597.7266,117118.7969,3872.1714,3383.9646,3762.1113,55950.7500,94293.3750,142068.0781,217.235809
4475.2886,3989.1379,3981.4714,3672.2573,122205.0313,138388.4531,158281.4375,103777.6016,3891.7292,3610.5667,4436.5308,3788.9336,103898.4844,90985.3672,110606.5781,116954.5156,3900.7815,3296.2339,3750.4885,56002.1367,94276.4375,142086.5469,217.239807
876.8142,607.2298,2543.5837,3596.3733,122157.5547,138706.7813,158282.6250,105026.7344,3591.7241,3629.4985,3035.5679,3985.3381,103773.2891,91330.3438,110463.6797,118252.1875,3899.9321,4076.8687,3940.9700,55703.6055,95032.3516,141888.5156,217.243805
-2818.1973,-2832.7036,-152.0589,3532.8943,122114.9297,138899.3281,158270.9531,105824.8438,3367.4690,3615.1709,383.9359,4088.8044,103674.4531,91543.0391,110366.8281,119126.9453,3870.0479,4487.4927,4061.3564,55486.4609,95476.0313,141757.3906,217.247803
-2818.1973,-2832.7036,-152.0589,3532.8943,122114.9297,138899.3281,158270.9531,105824.8438,3367.4690,3615.1709,383.9359,4088.8044,103674.4531,91543.0391,110366.8281,119126.9453,3870.0479,4487.4927,4061.3564,55486.4609,95476.0313,141757.3906,217.251801
-264.7787,-259.2355,2045.4751,3580.2129,122134.5078,138736.6875,158268.6563,105176.4219,3563.3821,3622.1895,2623.9607,3988.1992,103729.4375,91369.5000,110445.0859,118506.9531,3848.8584,4108.1836,3960.9077,55621.2852,95046.3438,141856.9531,217.255798
-264.7787,-259.2355,2045.4751,3580.2129,122134.5078,138736.6875,158268.6563,105176.4219,3563.3821,3622.1895,2623.9607,3988.1992,103729.4375,91369.5000,110445.0859,118506.9531,3848.8584,4108.1836,3960.9077,55621.2852,95046.3438,141856.9531,217.259796
4136.2349,3749.0803,3903.0168,3674.8054,122201.6563,138417.3906,158282.2813,103890.4766,3887.1470,3629.9678,4367.5977,3804.8926,103879.6641,91018.2656,110601.5469,117127.5625,3873.8254,3282.8899,3764.6147,55948.4922,94291.1875,142064.4688,217.263794
4490.5098,3993.6531,3991.6414,3678.8958,122205.4297,138387.9844,158282.7031,103774.6953,3895.7078,3616.7356,4445.4268,3795.1919,103899.3516,90984.7422,110605.9922,116950.5391,3905.3191,3211.5657,3754.4895,56002.9414,94272.5469,142085.8125,217.267792
926.8374,598.9821,2564.3262,3588.7290,122149.0859,138697.5781,158275.9531,105013.5469,3582.8057,3616.4897,3041.6030,3982.6113,103767.5469,91322.0234,110455.8594,118236.7891,3904.5591,4082.0989,3944.0547,55704.3008,95026.7813,141887.7344,217.271790
926.8374,598.9821,2564.3262,3588.7290,122149.0859,138697.5781,158275.9531,105013.5469,3582.8057,3616.4897,3041.6030,3982.6113,103767.5469,91322.0234,110455.8594,118236.7891,3904.5591,4082.0989,3944.0547,55704.3008,95026.7813,141887.7344,217.275787
-2824.6123,-2835.9668,-228.4125,3524.2664,122118.3047,138902.8594,158274.7344,105826.7422,3359.3777,3631.3313,284.2471,4097.5889,103677.6250,91545.2969,110368.9063,119128.5547,3872.9089,4489.4819,4063.2788,55484.9844,95472.1016,141755.5156,217.279785
-291.4667,-223.2939,2030.8571,3583.1187,122133.5703,138736.8750,158268.8125,105180.1953,3565.6843,3630.4148,2535.1794,3993.8542,103728.5391,91369.7500,110442.5391,118510.0391,3851.4514,4113.1230,3963.7241,55617.9570,95045.2891,141854.4688,217.283783
-291.4667,-223.2939,2030.8571,3583.1187,122133.5703,138736.8750,158268.8125,105180.1953,3565.6843,3630.4148,2535.1794,3993.8542,103728.5391,91369.7500,110442.5391,118510.0391,3851.4514,4113.1230,3963.7241,55617.9570,95045.2891,141854.4688,217.287781
4122.7119,3745.6157,3899.3735,3665.8201,122187.5938,138404.8594,158270.5000,103881.0938,3879.2346,3611.2817,4357.5396,3797.0024,103867.8359,91007.2031,110587.3984,117116.1875,3875.5242,3362.2163,3766.0229,55943.2617,94287.1641,142060.1563,217.291779
4498.3779,4014.3730,3996.1790,3680.9075,122201.6328,138383.2813,158279.6406,103767.1406,3898.5464,3621.9211,4449.7627,3795.3931,103895.5781,90979.2188,110601.1641,116942.0625,3903.8215,3183.0894,3752.1426,55996.7266,94261.1719,142079.4219,217.295776
4498.3779,4014.3730,3996.1790,3680.9075,122201.6328,138383.2813,158279.6406,103767.1406,3898.5464,3621.9211,4449.7627,3795.3931,103895.5781,90979.2188,110601.1641,116942.0625,3903.8215,3183.0894,3752.1426,55996.7266,94261.1719,142079.4219,217.299774
961.4379,717.4910,2614.0588,3597.3567,122146.8281,138693.5156,158274.1719,105005.6328,3595.4568,3626.2129,3074.9517,3984.1760,103764.5703,91316.8203,110451.7891,118227.7344,3902.7932,4060.9766,3941.2383,55698.2891,95014.3750,141881.1406,217.303772
-2809.1001,-2822.3323,-136.7703,3534.8164,122105.5156,138890.2500,158264.0469,105813.9844,3393.9783,3616.5344,394.0836,4090.0562,103666.5625,91533.5859,110355.6563,119113.0703,3873.3337,4489.5713,4063.2563,55479.8203,95464.7656,141750.3125,217.307770
-308.8340,-305.8166,1962.1702,3584.6162,122127.6484,138732.4844,158263.8906,105177.9375,3574.1333,3632.2478,2604.2910,3993.3625,103722.3281,91364.7891,110435.0938,118507.0000,3849.4172,4113.1230,3961.9360,55609.8867,95038.5000,141846.2656,217.311768
4127.0259,3745.7722,3886.3647,3671.6316,122187.5313,138405.5781,158271.0000,103883.4844,3883.8613,3624.6257,4361.0488,3803.0151,103866.4766,91006.9766,110585.0938,117118.5781,3875.0994,3392.3242,3765.4866,55936.8906,94281.2422,142053.2188,217.315765
4488.6772,3988.9817,3993.3848,3675.8113,122191.0391,138372.3750,158270.7031,103753.3984,3895.1042,3609.0466,4446.4321,3790.4758,103886.7500,90968.7813,110590.3516,116926.2422,3905.2744,3287.0698,3752.6565,55993.8672,94253.8125,142075.3281,217.319763
927.5750,610.6273,2641.7078,3596.0156,122142.8047,138688.7188,158271.2031,104995.5078,3590.6511,3625.6541,3079.1538,3985.4946,103761.8438,91311.5234,110447.5391,118216.1797,3905.1401,4071.4373,3942.3335,55697.5508,95006.9141,141878.6719,217.323761
-2807.0884,-2824.3887,-108.6742,3523.4395,122103.9063,138888.3438,158262.8594,105810.6953,3357.7236,3625.3186,398.8669,4094.4148,103664.8203,91530.9922,110352.5703,119108.9531,3872.7078,4488.5879,4061.9824,55475.1953,95457.2344,141744.0000,217.327759
-320.8146,-313.2373,2018.7201,3576.0107,122115.4688,138722.1406,158253.6563,105170.5000,3561.0574,3618.5686,2605.8557,3988.6240,103711.3984,91355.0156,110422.0625,118497.1172,3849.0374,4114.7100,3961.8018,55603.3359,95033.1563,141838.2188,217.331757
4503.4292,4002.5938,3999.1963,3680.8403,122189.4688,138369.8594,158269.8594,103748.6172,3898.2334,3618.9707,4452.9590,3793.9626,103884.7578,90965.4688,110587.3281,116920.4297,3904.0896,3206.6929,3751.6509,55988.3477,94243.0000,142067.8594,217.335754
-2824.0310,-2850.5850,-171.0355,3529.5862,122094.9922,138880.0781,158255.5156,105801.0859,3338.0542,3619.1497,353.2246,4090.7937,103656.3438,91521.8516,110342.8438,119097.6641,3870.4727,4485.6147,4059.1660,55467.1484,95445.8828,141734.5469,217.339752
4088.1563,3715.0610,3880.1287,3666.4236,122170.3359,138391.5625,158257.5156,103873.8047,3876.7087,3612.1089,4351.3926,3798.8352,103851.2969,90993.4375,110566.7031,117106.8438,3874.5854,3393.3970,3765.8442,55925.2695,94270.6719,142040.9219,217.343750
4501.9541,4001.0291,3999.3081,3679.7229,122182.4063,138362.6875,158264.4531,103737.8594,3899.0159,3615.4392,4453.5625,3791.9063,103879.1953,90958.1406,110580.3984,116909.0313,3904.2461,3277.1233,3750.3542,55984.9727,94234.7031,142064.5313,217.347748
949.0997,634.6554,2681.3599,3599.1895,122130.1953,138673.5938,158260.9375,104972.2344,3597.4907,3626.4810,3131.2112,3982.8350,103750.4453,91295.8281,110433.5469,118189.9219,3902.7263,4061.6248,3937.3713,55687.1328,94982.9766,141865.2031,217.351746
-2809.7483,-2825.0815,-92.5809,3533.8555,122086.0078,138871.2969,158248.1094,105791.5859,3370.4419,3613.5171,404.0972,4088.4468,103647.9844,91513.0469,110332.7422,119085.5938,3870.4055,4484.8325,4058.3613,55461.8750,95437.4531,141727.2500,217.355743
-384.1371,-383.6006,2006.4490,3582.1128,122107.0391,138717.3281,158247.9375,105170.6094,3559.8057,3626.1458,2586.8567,3993.3848,103702.6563,91348.9609,110410.9297,118496.0000,3848.0540,4117.7725,3961.5784,55590.4609,95022.7578,141823.9531,217.359741
4510.1797,4009.1428,3999.0845,3677.2642,122173.9375,138353.6875,158257.0938,103726.1953,3896.3784,3609.9631,4452.2661,3788.7993,103871.5469,90949.0469,110571.1484,116895.7734,3903.3296,3287.2039,3748.6555,55979.7188,94224.7813,142058.0469,217.363739
995.3008,661.5446,2592.7129,3594.8533,122125.4141,138668.3438,158257.2969,104961.4844,3594.7861,3623.7542,3054.4329,3982.2314,103747.1172,91289.9531,110428.7891,118178.1172,3904.8271,4061.8481,3938.2207,55685.9727,94975.3047,141863.2969,217.367737
-2816.5208,-2843.0747,-168.9121,3525.8982,122090.5469,138875.9219,158253.0938,105794.2891,3343.6643,3631.5996,328.5483,4097.5889,103652.3203,91516.6016,110336.2344,119089.0156,3872.7971,4486.7549,4060.2166,55460.6211,95434.1484,141726.6250,217.371735
-382.9077,-374.1235,1997.1283,3576.2119,122099.4609,138711.3281,158242.0469,105167.6797,3540.6057,3621.4072,2559.4980,3992.2002,103695.7734,91343.1484,110402.1719,118491.4844,3849.4172,4121.9072,3963.2771,55585.4336,95019.5391,141819.0938,217.375732
4089.0503,3706.9697,3888.9575,3668.7258,122159.8359,138384.2969,158249.4219,103869.8750,3876.2170,3616.4226,4348.4868,3801.2717,103839.7188,90984.1797,110552.6875,117100.7188,3873.5571,3293.9766,3765.4641,55910.9883,94256.7656,142024.0781,217.379730
4524.0151,4021.3691,4009.3887,3686.3838,122176.2188,138355.6094,158259.8281,103725.4141,3903.9556,3626.6821,4462.4360,3795.8401,103872.6406,90948.9766,110571.6875,116894.3438,3905.0955,3116.8167,3748.5886,55974.6875,94214.9219,142051.3438,217.383728
1034.9304,696.7262,2685.1372,3602.5200,122120.7891,138662.5313,158254.0313,104951.8516,3603.1682,3623.9553,3141.1575,3982.4773,103743.6484,91284.1406,110423.8281,118166.4922,3907.9565,4060.7529,3939.9641,55683.9844,94966.8828,141860.2344,217.387726
-2799.9136,-2821.4382,-128.4108,3542.7068,122082.6094,138868.5938,158247.1094,105785.6406,3385.4846,3623.9329,354.3645,4095.4653,103646.3281,91509.5781,110328.3828,119078.3125,3876.2842,4489.3252,4063.0330,55458.8555,95429.2969,141724.2188,217.391724
-356.3539,-322.6698,1933.9623,3591.6794,122103.9766,138717.6719,158247.2344,105176.2656,3567.0254,3642.5071,2454.3108,4003.2866,103699.2578,91348.2031,110405.0547,118500.8516,3851.4514,4126.1094,3965.5793,55581.8125,95017.5547,141815.4844,217.395721
4094.6382,3714.6140,3894.8137,3672.7043,122157.8906,138383.5625,158248.8750,103871.5938,3879.4358,3622.6365,4346.7437,3805.9431,103838.7813,90984.3594,110550.4531,117103.0859,3876.1052,3402.5613,3768.5935,55909.1094,94256.2266,142023.2188,217.399719
4529.3574,4028.2759,4005.0300,3680.2371,122164.3750,138343.4063,158250.0469,103710.2344,3899.9771,3611.5276,4457.9214,3789.9392,103863.4531,90937.9766,110560.5313,116877.3359,3905.4756,3281.3030,3749.0579,55972.3633,94207.3906,142048.2344,217.403717
1104.3997,768.0953,2647.4299,3602.7881,122118.3906,138659.1094,158252.1094,104943.5156,3604.7773,3633.9241,3101.1479,3985.5618,103740.9453,91279.2031,110420.2031,118157.4375,3905.1401,4056.4839,3936.4551,55677.7227,94953.5156,141851.2656,217.407715
-2781.9651,-2809.1226,-39.7190,3533.5647,122075.5938,138861.2344,158240.9063,105777.4141,3389.5750,3626.5928,437.3342,4094.8618,103639.0000,91501.5547,110319.5547,119068.0938,3873.1772,4485.8159,4059.4343,55450.5391,95417.4453,141713.3594,217.411713
-393.2566,-363.1488,2017.9377,3578.4917,122085.8516,138701.2344,158231.4375,105162.3594,3559.6045,3618.9707,2560.5710,3992.5803,103683.2109,91332.9766,110386.6094,118484.3828,3848.5679,4125.2603,3962.9866,55573.0938,95009.6406,141805.7656,217.415710
4085.9658,3712.0212,3893.3608,3674.6489,122153.8438,138381.1719,158246.0938,103870.0938,3879.6370,3626.8162,4350.6104,3808.5137,103834.6016,90980.9609,110545.3125,117101.5234,3874.7417,3300.3245,3767.4534,55902.4727,94249.7266,142015.7813,217.419708
4535.5713,4037.6189,4013.6580,3686.5400,122164.3750,138342.5469,158250.6563,103706.4609,3903.9331,3622.2341,4465.6323,3794.9460,103863.0781,90936.0781,110559.3438,116873.3984,3906.5483,3103.4949,3748.9238,55969.0781,94199.5938,142044.3438,217.423706
1104.8243,794.6045,2724.9011,3599.1448,122106.4766,138646.0313,158242.1406,104926.1484,3597.9377,3618.0767,3145.4492,3978.3420,103731.4219,91267.0859,110408.8281,118137.9922,3906.4365,4051.6111,3936.3879,55675.4883,94944.7734,141848.8438,217.427704
-2776.6453,-2800.4275,-67.9940,3530.9050,122071.6563,138857.3906,158238.2969,105772.2031,3359.3330,3627.9785,401.2138,4096.0464,103635.4922,91497.2891,110314.5313,119061.4375,3875.0325,4486.9785,4060.8872,55447.0313,95410.8984,141708.7813,217.431702
4084.5354,3705.7180,3879.3462,3665.0601,122138.2891,138367.2656,158232.8438,103858.8516,3870.9197,3610.5667,4333.9360,3799.3718,103820.1797,90967.6406,110528.8828,117088.1563,3871.5007,3385.7751,3765.0842,55892.3438,94240.3125,142005.0313,217.435699
4542.6792,4032.2769,4011.5569,3683.2991,122154.9844,138333.3281,158242.8750,103694.5859,3902.8604,3617.9873,4463.3750,3790.6323,103854.9219,90926.6484,110549.6875,116860.2813,3902.0779,3210.3809,3745.8840,55961.9023,94187.9922,142036.4063,217.439697
1189.8503,815.7716,2734.5347,3605.4033,122104.5781,138642.9688,158241.1406,104918.3906,3604.9563,3627.6880,3164.4929,3981.0913,103729.8125,91263.3750,110406.1719,118129.7266,3905.1179,4041.0610,3934.5105,55671.3555,94933.9141,141843.6719,217.443695
-2769.1128,-2802.9309,-46.9163,3537.9011,122059.7656,138846.0313,158228.3438,105759.1328,3369.8384,3614.8582,417.5529,4089.9443,103626.0391,91486.7578,110303.3984,119047.4219,3872.8420,4484.1396,4058.2495,55441.4883,95402.8984,141703.6875,217.447693
-530.5410,-518.8287,1952.7153,3582.2246,122077.7109,138696.5000,158225.9375,105162.6328,3554.2178,3626.8833,2521.9695,3997.1846,103675.1641,91327.5234,110375.8828,118483.6172,3848.3445,4129.5742,3963.7913,55561.0273,95000.7422,141792.9063,217.451691
4036.9707,3661.7073,3880.4639,3671.2292,122138.3984,138368.7344,158233.8281,103862.2969,3875.5464,3622.9270,4340.9321,3806.1667,103819.8516,90968.6484,110527.3125,117091.9766,3872.6855,3396.2134,3766.3582,55888.0977,94236.7813,141999.8906,217.455688
4533.0679,4029.2371,4007.0864,3679.2981,122145.0391,138323.0000,158234.5000,103681.2031,3899.8428,3609.3596,4460.9165,3786.1394,103846.1797,90916.2734,110539.1641,116844.9922,3902.3015,3236.8901,3744.5652,55956.9414,94177.6406,142029.6406,217.459686
1072.3025,726.9681,2709.0090,3601.5811,122096.1563,138633.8750,158233.8125,104904.5078,3599.9048,3623.4187,3192.0525,3977.5151,103722.1719,91253.3828,110397.0313,118113.8750,3903.5757,4041.5530,3931.7163,55665.3867,94921.3281,141835.4219,217.463684
-2805.6802,-2837.7102,-34.1088,3528.9604,122058.5391,138844.6719,158227.6563,105756.4922,3332.8015,3626.5703,448.8007,4094.1912,103624.1328,91484.3203,110300.3125,119043.7578,3872.6855,4483.5137,4057.5791,55436.7734,95395.0703,141697.3594,217.467682
-484.8540,-465.1845,1974.6425,3576.5696,122069.6641,138690.2500,158219.7656,105158.6953,3541.1196,3621.5188,2531.2009,3995.8435,103668.1250,91321.4219,110367.0078,118478.0078,3849.5737,4132.4575,3965.2888,55556.6211,94997.2344,141788.0156,217.471680
4051.2759,3679.3206,3881.5369,3670.8491,122131.8516,138364.0938,158229.1719,103859.0547,3874.0042,3619.3508,4338.9873,3806.1221,103814.4844,90963.8438,110520.6328,117087.9297,3872.3279,3354.5273,3767.9229,55883.9648,94232.9141,141995.9844,217.475677
4545.7412,4041.5081,4017.6365,3686.4285,122145.5078,138322.4844,158235.5781,103678.2031,3905.4978,3621.9883,4469.2983,3791.6604,103846.2891,90914.8203,110538.2266,116841.1484,3901.9216,3200.5015,3745.2358,55953.4336,94169.2813,142024.9688,217.479675
1135.0663,799.0972,2758.6746,3600.6201,122087.4844,138624.0781,158226.6719,104890.6719,3602.3857,3617.4731,3184.9670,3974.0059,103714.9063,91243.7031,110388.1797,118098.1875,3903.2180,4034.6016,3930.4199,55660.8711,94910.1563,141829.7969,217.483673
-2793.9456,-2821.6841,-82.9473,3539.3762,122049.5938,138836.5000,158220.3281,105746.9297,3342.0999,3620.1108,357.8067,4091.1067,103616.0000,91475.4688,110290.9453,119032.8047,3870.7185,4481.1001,4054.9417,55429.1055,95384.5938,141688.6719,217.487671
-563.4651,-549.9870,1938.8126,3585.2644,122068.9766,138690.6875,158219.8594,105161.4922,3528.3569,3634.3264,2480.0376,4001.5432,103666.1563,91320.6172,110364.2188,118480.8516,3847.9421,4133.3740,3963.8135,55548.8008,94990.5078,141779.7031,217.491669
4020.1399,3646.7092,3878.2957,3667.2729,122122.2188,138355.5313,158221.1719,103852.4844,3870.3833,3614.0757,4336.3501,3802.9705,103805.4297,90955.6563,110510.0625,117080.2891,3872.2385,3405.5339,3766.0005,55876.5195,94225.8750,141988.3594,217.495667
4545.1821,4041.5081,4013.0544,3682.6287,122135.6484,138312.9063,158227.2344,103665.4844,3903.7097,3615.5510,4466.5044,3787.3464,103837.7109,90904.9922,110528.3906,116827.3359,3901.1392,3254.3691,3741.7043,55946.7031,94158.0625,142017.3281,217.499664
1132.0264,792.3693,2771.3257,3607.5938,122087.5938,138623.0156,158227.0938,104884.6641,3610.6782,3632.9629,3243.7297,3978.8115,103714.2344,91240.9141,110386.5859,118091.7734,3901.9663,4036.4343,3927.4919,55655.6406,94898.3047,141822.6875,217.503662
-2786.5696,-2815.0010,39.0261,3538.1470,122041.2813,138827.9688,158213.5469,105737.3828,3376.6333,3616.3779,498.7121,4088.7598,103609.0234,91467.4219,110281.9141,119021.3359,3871.0762,4481.1670,4054.7180,55424.9023,95377.5469,141683.3906,217.507660
-522.4944,-477.2768,1979.0905,3583.1187,122060.3203,138684.3438,158213.0156,105157.1719,3551.1333,3626.3691,2499.7295,4000.0010,103658.9141,91314.3594,110355.1406,118474.9922,3849.5066,4136.9727,3965.7805,55544.3047,94987.5156,141774.6719,217.511658
4039.7200,3673.0173,3889.4939,3678.1807,122126.7734,138361.6719,158226.2969,103859.7656,3878.4521,3632.7170,4341.7817,3813.8333,103808.9219,90960.1563,110512.5156,117088.0234,3873.6465,3372.6992,3769.4429,55873.4570,94223.4609,141984.5625,217.515656
4553.1396,4053.0640,4018.8210,3684.5955,122131.7578,138308.0938,158224.7344,103658.0469,3904.3579,3614.6345,4470.5723,3788.3523,103835.1172,90900.5391,110523.9219,116818.7031,3904.0896,3258.1914,3744.7664,55946.2148,94153.1641,142016.4375,217.519653
1172.3713,862.6208,2720.7212,3598.4294,122080.5313,138615.5000,158221.8750,104872.9531,3601.0000,3623.0613,3153.8086,3976.7329,103709.6328,91233.9141,110380.1484,118078.4297,3905.9895,4041.2847,3930.5542,55655.4844,94892.4063,141821.7188,217.523651
-2790.4812,-2816.3420,-100.0464,3527.6416,122046.0859,138833.0000,158218.6250,105740.4219,3345.3408,3634.6169,330.2470,4098.8179,103612.5781,91470.5078,110284.7578,119024.0156,3873.3337,4483.0220,4056.3499,55421.3281,95370.7109,141677.9063,217.527649
-524.4390,-500.8355,1968.2722,3581.1069,122053.7109,138678.7344,158208.0156,105154.2500,3532.3354,3626.9280,2467.6326,3999.9785,103652.3906,91308.8594,110347.0234,118470.7031,3848.2773,4138.1572,3964.7747,55536.2813,94980.0703,141765.4688,217.531647
4030.0417,3660.1204,3883.3250,3669.0610,122111.7813,138348.5313,158213.9531,103849.0625,3870.1821,3614.8804,4334.1147,3805.3621,103796.0859,90948.1484,110497.8359,117075.4844,3873.9148,3366.3066,3768.4592,55866.1250,94216.5781,141976.8438,217.535645
4567.2661,4063.2788,4028.5664,3693.5586,122134.2656,138310.5781,158227.9063,103657.2813,3914.7961,3630.6609,4480.3848,3795.6614,103837.4609,90901.5000,110525.6641,116817.9922,3907.5095,3123.5220,3746.0852,55944.0000,94145.9688,142013.1875,217.539642
4567.2661,4063.2788,4028.5664,3693.5586,122134.2656,138310.5781,158227.9063,103657.2813,3914.7961,3630.6609,4480.3848,3795.6614,103837.4609,90901.5000,110525.6641,116817.9922,3907.5095,3123.5220,3746.0852,55944.0000,94145.9688,142013.1875,217.543640
1222.4392,890.3370,2799.9583,3611.1702,122079.1406,138612.6094,158221.3594,104865.4844,3616.3557,3631.4207,3224.3284,3979.7949,103708.9844,91230.6953,110378.4063,118070.2031,3907.8894,4027.3149,3931.1799,55654.0547,94884.1797,141819.6719,217.547638
-2759.0769,-2793.4539,29.2808,3541.4773,122028.8984,138816.6875,158205.9375,105725.1563,3392.7266,3618.8813,463.5528,4091.1292,103602.2344,91459.0234,110272.0625,119006.6719,3873.5349,4483.0444,4055.6792,55420.1641,95367.2891,141677.2500,217.551636
-2759.0769,-2793.4539,29.2808,3541.4773,122028.8984,138816.6875,158205.9375,105725.1563,3392.7266,3618.8813,463.5528,4091.1292,103602.2344,91459.0234,110272.0625,119006.6719,3873.5349,4483.0444,4055.6792,55420.1641,95367.2891,141677.2500,217.555634
-477.3662,-477.2768,1881.9722,3578.4470,122014.2109,138645.3906,158184.9844,105135.6953,3547.3110,3628.7832,2427.6453,3996.0671,103641.0781,91299.9688,110334.5547,118453.7578,3828.4961,4124.7910,3942.6465,55531.6328,94978.1016,141762.2031,217.559631
4043.3411,3669.8882,3872.2385,3661.3496,122057.4609,138302.1719,158182.3125,103821.3047,3859.6096,3617.6743,4318.3569,3799.4165,103780.2422,90934.8281,110480.9141,117050.1797,3843.6953,3327.3699,3735.4905,55858.4141,94210.7422,141970.2344,217.563629
4043.3411,3669.8882,3872.2385,3661.3496,122057.4609,138302.1719,158182.3125,103821.3047,3859.6096,3617.6743,4318.3569,3799.4165,103780.2422,90934.8281,110480.9141,117050.1797,3843.6953,3327.3699,3735.4905,55858.4141,94210.7422,141970.2344,217.567627
4559.9346,4047.8560,4017.4353,3669.2622,122062.6484,138246.8750,158181.2344,103608.3984,3889.8740,3601.1787,4459.7095,3773.3096,103808.0703,90872.4219,110494.2344,116769.1719,3873.1772,3094.4648,3708.8918,55933.3164,94132.5547,142002.5781,217.571625
1274.4741,899.7918,2817.9736,3591.0088,122014.9063,138556.4688,158181.7031,104821.8750,3584.4822,3617.2273,3178.9321,3964.9312,103686.2500,91207.7656,110354.5625,118027.4922,3875.7029,3999.1963,3894.7019,55644.9102,94870.1406,141809.8125,217.575623
-2738.5803,-2775.4160,83.0591,3513.5601,121973.9531,138770.3125,158173.4844,105692.2734,3313.4001,3614.1653,400.1186,4082.8813,103584.3750,91442.0781,110253.3750,118974.8203,3845.4609,4459.4409,4023.6267,55411.0469,95356.0234,141667.3594,217.579620
-527.5235,-493.7724,1961.7455,3567.0701,121984.4375,138623.0313,158166.4375,105119.8281,3523.2830,3611.1252,2430.2156,3988.6462,103626.5469,91286.7813,110318.2578,118436.7031,3822.2600,4121.6392,3935.9409,55525.5547,94973.4766,141755.5781,217.583618
4026.5771,3663.1826,3879.1897,3661.9756,122047.9219,138297.8594,158177.3906,103818.6875,3858.5591,3615.2380,4318.5581,3800.0647,103774.3203,90930.0859,110473.6484,117046.6719,3845.6399,3308.9744,3738.1726,55853.7227,94207.1016,141965.0938,217.587616
4570.1270,4063.6812,4022.5093,3674.9172,122058.4688,138244.4844,158180.1094,103603.1016,3893.2490,3610.2759,4465.9678,3776.8188,103806.3281,90869.1797,110491.3984,116763.3438,3874.6077,2981.3650,3709.3835,55929.3359,94124.0234,141998.3281,217.591614
1278.2068,941.2543,2824.5227,3589.9583,122000.9141,138543.9375,158171.5781,104804.9766,3585.3538,3605.6716,3198.0205,3958.3596,103676.5703,91195.5391,110343.1563,118009.1797,3875.5017,3981.5608,3893.5173,55639.7031,94858.8125,141804.6875,217.595612
-2750.9856,-2784.2896,30.3090,3520.2207,121966.6719,138765.7500,158169.8750,105685.8594,3274.8210,3614.5898,365.2498,4083.1719,103580.5313,91437.2031,110248.1406,118967.7578,3847.8750,4460.8047,4025.9736,55407.6250,95349.9922,141664.3281,217.599609
-535.5701,-524.8636,1879.6476,3570.0876,121981.7344,138623.4375,158166.5938,105122.5547,3505.4463,3623.4187,2412.2224,3993.7202,103625.3203,91286.6641,110315.7578,118439.1875,3824.4727,4125.4839,3938.6902,55520.0977,94969.2500,141750.2031,217.603607
4023.3140,3657.7734,3859.9897,3657.7510,122035.0234,138288.1875,158168.3438,103811.5078,3854.3123,3606.5879,4310.2207,3795.5720,103764.6406,90921.2578,110462.1797,117038.2656,3846.3328,3351.3982,3739.4243,55846.2578,94200.1719,141957.2188,217.607605
4568.0928,4059.4790,4024.1855,3675.2302,122049.8672,138237.6719,158174.7031,103593.3828,3895.7971,3609.1584,4466.7275,3775.2988,103800.4688,90862.0469,110484.4688,116752.3438,3875.1665,3104.5232,3710.2776,55923.8398,94113.6016,141990.9688,217.611603
1309.1639,965.7294,2904.1843,3600.7988,122000.9766,138544.3594,158173.9688,104800.3516,3599.5918,3620.4683,3215.4548,3964.8865,103678.2266,91194.9609,110343.8047,118003.1719,3879.2346,3993.3179,3896.6465,55638.2734,94849.9844,141800.8281,217.615601
-2725.3704,-2756.4617,117.3243,3533.2295,121956.5234,138757.6406,158163.1094,105676.2734,3327.0125,3607.9739,393.6589,4081.1826,103573.1328,91429.0234,110238.7969,118955.2891,3849.9314,4461.9224,4027.9182,55403.8047,95342.3438,141658.2813,217.619598
3991.3733,3619.6860,3875.5017,3665.6860,122033.9922,138290.2813,158169.6094,103814.5313,3859.7886,3619.5520,4316.3003,3803.2610,103764.6875,90922.4219,110461.2422,117041.6406,3848.1655,3354.2815,3742.3748,55842.5898,94196.5938,141952.6563,217.623596
4572.6748,4066.3633,4022.9116,3675.2749,122041.4844,138230.9688,158169.4375,103583.7031,3895.1489,3604.2856,4466.7725,3774.7178,103795.3281,90855.5000,110477.6094,116741.6563,3877.7817,3112.1675,3712.4233,55922.4102,94107.5938,141988.9219,217.627594
-2758.8533,-2795.3762,66.7870,3525.1829,121957.6875,138760.2500,158165.9375,105676.8281,3294.2893,3626.2798,377.7221,4089.5645,103575.2109,91430.4297,110239.8984,118955.8672,3852.5242,4463.5093,4030.1982,55400.4297,95335.5313,141653.2969,217.631592
-611.4096,-566.1920,1974.2625,3570.3782,121964.9453,138613.9063,158156.3281,105117.3438,3504.7981,3617.5403,2421.9902,3995.1506,103613.4297,91277.1016,110300.5781,118431.4063,3828.9431,4133.7314,3944.6357,55510.3555,94961.3125,141738.1250,217.635590
3991.9543,3632.6724,3876.4854,3665.8201,122025.8828,138285.9063,158164.7656,103811.6484,3858.8945,3615.2827,4313.2607,3803.0374,103759.1172,90917.6875,110454.5156,117038.1797,3850.2219,3247.3955,3744.6770,55837.0039,94191.7422,141946.6094,217.639587
4587.9858,4083.3059,4036.4343,3687.9260,122045.0781,138235.4531,158174.8125,103584.9297,3905.5203,3623.3965,4479.6025,3784.4407,103799.8672,90858.6094,110481.6094,116743.1328,3881.6931,3008.7234,3716.1785,55920.6445,94101.2656,141986.5469,217.643585
1322.9998,994.6302,2872.6013,3601.4023,121985.0000,138530.2656,158163.8594,104777.3516,3604.7327,3614.4558,3249.3401,3962.3606,103668.5938,91180.8125,110331.2031,117978.0000,3883.4368,3997.7881,3899.1499,55632.9297,94832.6172,141794.0781,217.647583
-2744.5259,-2766.2070,74.7219,3538.2588,121945.0547,138749.9219,158156.7813,105664.8750,3347.1514,3614.5452,369.7873,4084.1777,103566.3594,91420.6172,110229.6094,118942.9297,3852.6807,4462.6597,4029.9524,55394.9063,95327.8359,141648.3438,217.651581
-639.4611,-555.2173,1913.4434,3583.3867,121963.9453,138615.7500,158157.3125,105120.0938,3519.0361,3632.2700,2298.2063,4002.3257,103612.9844,91277.5703,110299.5703,118434.8750,3828.9878,4134.9160,3944.9487,55503.3125,94954.7656,141731.0156,217.655579
3976.6211,3619.9990,3880.4639,3665.2166,122016.8281,138279.5156,158158.7500,103807.1094,3858.5369,3613.7852,4308.7007,3802.6797,103751.9688,90911.4219,110445.5781,117032.4141,3851.8313,3373.7051,3746.8005,55830.4531,94185.3516,141939.1094,217.659576
4585.7954,4085.7422,4030.8911,3682.3828,122031.6016,138223.5469,158164.5313,103570.3359,3902.7932,3611.4382,4474.7295,3778.6294,103789.7422,90847.0078,110469.6016,116726.8594,3882.2297,3151.7522,3716.1563,55914.8555,94091.0938,141979.2656,217.663574
-2726.8904,-2755.2324,173.1813,3537.1858,121936.2031,138742.0938,158150.1875,105655.4844,3360.7188,3615.0369,470.2583,4082.9929,103559.2969,91412.7109,110220.8516,118932.2422,3850.9373,4460.1563,4027.9854,55388.0000,95317.6016,141639.7344,217.667572
-599.8538,-567.2202,1969.2109,3572.6133,121945.2578,138600.2813,158142.3594,105106.7500,3523.1265,3612.1311,2401.7620,3991.9990,103597.9375,91263.3281,110282.3203,118419.6719,3825.7468,4133.7983,3942.3560,55494.4844,94947.1484,141721.5000,217.671570
3989.3169,3628.4702,3879.0110,3669.2400,122012.5781,138277.8750,158156.5313,103806.0156,3859.9001,3622.8376,4311.6514,3806.3455,103748.6172,90908.8125,110441.4609,117032.0313,3849.0820,3269.5237,3744.3418,55823.1211,94178.1094,141931.2031,217.675568
4594.6021,4089.3855,4035.5403,3686.0930,122026.9063,138219.6719,158162.1719,103563.8516,3904.2461,3616.0874,4479.2446,3781.1550,103786.4297,90842.4922,110465.2031,116719.7109,3883.4814,3061.5408,3716.8938,55910.8750,94082.3594,141973.3750,217.679565
4594.6021,4089.3855,4035.5403,3686.0930,122026.9063,138219.6719,158162.1719,103563.8516,3904.2461,3616.0874,4479.2446,3781.1550,103786.4297,90842.4922,110465.2031,116719.7109,3883.4814,3061.5408,3716.8938,55910.8750,94082.3594,141973.3750,217.683563
1403.1084,1063.8088,2874.5459,3600.9553,121970.1797,138516.5313,158153.9219,104754.2188,3601.0000,3612.3770,3243.0591,3961.1982,103658.1328,91165.8984,110318.0391,117952.2500,3885.7837,3999.2634,3899.6641,55625.3086,94811.6016,141782.3125,217.687561
-2720.2520,-2745.5764,84.0426,3532.3801,121933.8125,138741.2813,158150.0156,105652.5781,3332.9580,3622.6143,369.2955,4087.5752,103557.9766,91410.4063,110218.5469,118928.3516,3853.9099,4462.0786,4030.4663,55384.7813,95310.6094,141634.8125,217.691559
-601.5748,-507.8316,1916.1926,3577.4861,121943.8516,138601.3281,158142.9844,105109.7266,3518.7456,3624.0669,2278.2239,3998.5259,103597.1094,91263.5313,110280.3984,118422.7578,3828.0938,4137.5981,3945.2168,55489.6563,94942.7891,141716.0625,217.695557
3979.7949,3629.4539,3874.7417,3659.7852,121995.8203,138264.2813,158143.4219,103794.8125,3851.5183,3605.1575,4296.9663,3797.4941,103735.1797,90896.3359,110425.9922,117019.5781,3848.6125,3345.5195,3744.6995,55815.0977,94170.7578,141923.3125,217.699554
4597.0605,4099.5557,4036.2556,3686.3167,122019.4219,138213.1094,158156.8906,103554.1953,3905.3638,3617.3616,4480.2280,3779.6353,103780.9766,90835.5391,110458.7656,116709.7188,3882.4309,3009.6177,3715.1057,55904.9297,94071.6250,141967.5000,217.703552
1418.7322,1152.7018,2898.7754,3608.3538,121967.2734,138513.4844,158152.5313,104746.3984,3611.7959,3624.0447,3265.0085,3964.0146,103656.6797,91162.1875,110315.8672,117944.7422,3884.3977,3967.3899,3897.5852,55620.0547,94799.9375,141776.5781,217.707550
-2712.0488,-2733.1936,155.5234,3535.6211,121918.5703,138727.7656,158137.9375,105637.5625,3361.9033,3607.1914,457.4508,4079.3496,103546.7578,91398.0469,110205.3359,118911.8125,3853.1277,4460.5811,4029.4382,55378.8594,95301.7813,141628.4531,217.711548
-658.5941,-617.6010,1878.3064,3576.6589,121934.1016,138594.7656,158136.0313,105104.6484,3529.3628,3620.8484,2365.1050,3996.1790,103589.3984,91256.7188,110271.2344,118416.6563,3827.5349,4138.8276,3944.9934,55482.5273,94936.2344,141708.0938,217.715546
3970.2061,3620.6025,3855.5864,3663.7637,121991.6563,138262.3906,158141.3281,103794.4531,3854.1335,3614.7910,4299.4028,3801.4504,103731.4453,90893.5703,110421.1016,117018.7344,3848.5232,3368.0947,3744.5652,55807.8125,94163.4063,141914.1563,217.719543
4584.9907,4078.0532,4029.1477,3677.8230,122003.0781,138197.9531,158143.7031,103536.4063,3898.6135,3602.1624,4472.5840,3770.8955,103767.3438,90820.4766,110443.0078,116689.2891,3880.2402,3107.7864,3712.3564,55896.6602,94058.4609,141956.5000,217.723541
1384.7799,1055.9410,2932.3477,3602.5200,121955.2031,138501.7969,158143.0313,104729.6094,3603.9729,3616.3779,3269.3447,3959.1868,103646.6641,91149.7656,110304.1797,117925.2969,3882.9226,3979.1245,3894.9478,55613.1719,94785.4766,141766.5156,217.727539
-2708.6960,-2736.4346,208.5641,3529.3179,121915.1250,138725.0313,158136.4688,105633.1797,3338.4565,3618.1663,482.4847,4083.5518,103543.9141,91394.4688,110201.0234,118905.8906,3853.5522,4459.9106,4029.3042,55373.1602,95292.0781,141620.0000,217.731537
-662.0139,-628.3299,1924.3734,3572.0769,121923.9141,138587.3750,158128.9375,105099.4375,3524.3782,3613.8076,2366.3792,3994.5471,103581.4688,91249.7656,110261.2891,118409.5703,3829.2561,4141.8452,3947.4072,55477.4531,94931.7656,141701.4688,217.735535
4598.2676,4090.8162,4035.8979,3684.2378,122001.6094,138197.1406,158143.9688,103532.9844,3903.1284,3612.9136,4479.2671,3775.5000,103767.2109,90819.2031,110441.7734,116686.1797,3879.9050,3017.2620,3713.0940,55893.5508,94051.6484,141953.5156,217.739532
1436.2113,1086.9430,2919.4507,3601.8047,121945.1641,138492.2813,158135.7188,104715.8203,3604.7104,3608.6890,3275.7151,3954.7834,103640.0703,91140.8906,110295.8672,117910.7656,3883.4143,3958.4492,3894.9702,55610.2891,94777.0000,141763.6719,217.743530
-2714.0605,-2754.8076,119.6265,3529.4521,121904.1328,138715.7188,158127.9844,105621.8047,3294.9600,3609.6501,408.3440,4078.9473,103535.3516,91384.9219,110191.2344,118893.7500,3851.6077,4456.9824,4027.2253,55366.5664,95282.8672,141613.5625,217.747528
-746.2577,-698.8049,1862.0791,3572.5911,121919.9297,138585.5000,158126.8125,105099.6641,3488.2131,3622.5693,2341.4568,3997.6987,103577.9609,91247.1250,110256.6172,118409.6172,3828.2502,4142.8735,3946.9602,55469.8750,94925.4219,141694.0313,217.751526
3932.6553,3587.8125,3850.5571,3662.6013,121975.4063,138251.8125,158130.7656,103787.1016,3851.5630,3608.1973,4292.9878,3800.6235,103719.1328,90882.8125,110405.6563,117009.4297,3851.1606,3366.5078,3748.9016,55797.5078,94153.9922,141902.7969,217.755524
4599.2290,4090.3467,4038.0212,3685.6460,121995.6172,138192.6563,158140.5156,103525.0313,3906.7942,3612.9583,4482.0835,3776.1707,103763.4297,90813.8828,110436.9219,116677.2188,3883.2131,3087.9829,3715.0833,55890.2656,94043.4844,141948.9063,217.759521
1430.0199,1100.5105,2976.0005,3610.5667,121946.1094,138493.0625,158138.2344,104712.0391,3615.8862,3626.1904,3305.6665,3962.4500,103641.7031,91140.3281,110296.6484,117906.5859,3885.5825,3973.1565,3895.9983,55607.1836,94767.4609,141758.9531,217.763519
-2699.0178,-2723.4705,197.4777,3537.0740,121896.6406,138709.6250,158123.2969,105614.3125,3346.9949,3607.4373,456.6908,4079.1931,103530.3516,91378.9141,110184.5781,118884.5625,3854.4241,4458.9717,4029.6394,55363.4375,95276.5859,141609.0313,217.767517
-710.3608,-686.1762,1902.0663,3576.9495,121911.3047,138580.3438,158121.1250,105095.3984,3515.6833,3618.3896,2334.0361,3997.5869,103571.6563,91241.7422,110249.1250,118404.7422,3829.0771,4144.8848,3948.1226,55464.6016,94920.4141,141688.0156,217.771515
3939.5842,3580.1458,3866.1365,3670.2234,121974.7188,138253.5156,158131.9063,103789.9844,3856.4358,3623.7542,4298.8213,3808.2007,103718.9766,90883.8906,110404.8516,117013.5703,3850.1548,3382.6682,3749.1475,55792.0313,94148.9844,141897.1094,217.775513
4601.6875,4092.5149,4035.0039,3681.8687,121983.7656,138181.1875,158131.3438,103511.6172,3901.7874,3605.0234,4478.8872,3771.5886,103754.2656,90803.5078,110425.9922,116662.7109,3881.8496,3146.6338,3713.5857,55884.6328,94033.3594,141942.2031,217.779510
1456.6407,1099.2365,2870.2769,3601.4470,121933.3672,138480.7188,158128.2344,104694.2031,3606.9680,3613.3606,3234.9902,3955.7446,103632.2734,91128.3047,110285.5781,117887.2109,3884.3977,3972.0391,3893.9866,55602.4219,94755.3906,141752.6563,217.783508
1456.6407,1099.2365,2870.2769,3601.4470,121933.3672,138480.7188,158128.2344,104694.2031,3606.9680,3613.3606,3234.9902,3955.7446,103632.2734,91128.3047,110285.5781,117887.2109,3884.3977,3972.0391,3893.9866,55602.4219,94755.3906,141752.6563,217.787506
-2710.6631,-2753.6677,117.8831,3528.6250,121897.6250,138711.4375,158125.5625,105613.1953,3318.9209,3623.6423,397.6822,4086.6362,103531.5781,91379.4453,110184.9297,118883.5156,3855.6311,4458.9268,4030.3101,55359.9727,95269.1875,141604.0781,217.791504
-708.5726,-673.2792,1937.9856,3568.0313,121899.7969,138570.9688,158112.1719,105088.3516,3489.9565,3612.4441,2357.6619,3994.2566,103561.6875,91232.9297,110237.3281,118396.3359,3827.7361,4145.6895,3947.2957,55456.4883,94913.0781,141678.7188,217.795502
3930.6211,3576.9048,3859.8333,3661.8862,121959.0234,138240.7344,158119.2344,103778.3438,3848.0315,3607.9739,4288.6514,3800.4893,103705.5156,90871.3047,110389.7656,117000.1797,3848.9702,3282.8677,3747.3816,55782.5078,94139.0859,141885.8438,217.799500
4613.5342,4105.2554,4042.0000,3688.4399,121982.2500,138180.4688,158131.1406,103507.1484,3907.4871,3620.1331,4486.5986,3776.5730,103752.6172,90800.5859,110423.9141,116658.1719,3880.3298,2959.7732,3710.8811,55876.3867,94019.7031,141931.4063,217.803497
1533.0837,1186.9670,2961.2932,3605.5151,121924.9844,138471.9063,158121.9375,104681.4609,3611.1030,3614.5005,3296.3457,3953.8223,103625.2578,91119.0938,110277.1563,117872.8359,3883.7273,3968.8875,3892.0867,55595.7383,94742.0469,141743.9688,217.807495
-2667.2559,-2706.2373,154.3164,3536.3589,121880.4375,138696.0313,158111.7188,105596.2500,3342.7703,3604.5762,412.5685,4076.6899,103517.8750,91364.5859,110169.2188,118864.2500,3854.1111,4456.2671,4028.2537,55352.1055,95257.8984,141595.1250,217.811493
-660.9858,-624.1501,1824.3940,3580.2800,121898.5391,138572.5469,158112.9531,105091.0156,3512.9341,3625.3635,2223.6184,4000.5374,103561.0625,91233.1094,110235.7578,118399.1953,3828.6526,4147.8354,3948.2791,55450.5625,94907.4063,141672.1406,217.815491
3943.0264,3585.8455,3859.8555,3666.5576,121955.6719,138239.6094,158118.3281,103779.1016,3851.6748,3616.0427,4282.5049,3804.9597,103703.4375,90870.0938,110386.2969,117001.1172,3851.1384,3375.8733,3749.8403,55778.5078,94135.6875,141882.2813,217.819489
4615.0986,4102.5059,4036.9707,3682.2932,121968.6406,138167.8438,158121.0781,103491.8359,3903.1284,3602.7212,4481.5469,3769.9792,103743.0234,90789.2500,110412.1172,116640.9219,3884.0625,3101.8633,3713.6528,55875.4492,94014.0703,141930.3906,217.823486
1581.1847,1198.6346,2903.4692,3608.0632,121923.0859,138470.4219,158121.9063,104674.4219,3612.7124,3622.1895,3261.1641,3958.4714,103624.2734,91115.9453,110275.2813,117864.5000,3886.6331,3966.6746,3893.6292,55593.8398,94732.6797,141739.5625,217.827484
-2668.0830,-2717.7708,141.6877,3532.8496,121879.9688,138696.3750,158112.8750,105594.1328,3347.0396,3617.2720,413.5967,4083.5742,103517.6563,91363.3750,110167.8359,118861.0547,3856.4358,4457.4741,4029.8406,55348.3281,95249.7188,141588.5000,217.831482
-712.8865,-658.9070,1881.3015,3572.8591,121885.1094,138561.7188,158102.7969,105081.5156,3514.3870,3610.2759,2287.9246,3995.8882,103550.7813,91223.1406,110223.1953,118387.5547,3830.7759,4151.2998,3950.5813,55445.9805,94902.4219,141665.7500,217.835480
3931.3140,3582.9622,3859.5649,3667.0046,121948.6094,138235.0938,158113.6406,103774.9219,3851.1160,3615.2605,4286.4160,3806.0325,103698.2578,90865.3828,110379.5234,116996.7344,3852.4348,3345.5420,3751.0920,55773.6797,94130.1875,141875.8750,217.839478
4619.5688,4109.8823,4042.3352,3686.2720,121964.5469,138163.7031,158118.4688,103484.0156,3905.1626,3610.2312,4487.1348,3772.5049,103740.1172,90784.6484,110408.0469,116633.2734,3884.0178,3002.7778,3712.2000,55870.3281,94003.2969,141923.4063,217.843475
1576.8037,1230.2177,2977.7217,3606.6550,121911.1719,138458.1875,158112.7656,104656.1406,3610.0972,3608.9126,3307.5217,3952.6377,103616.9375,91105.2344,110265.8203,117845.5234,3888.8010,3960.1702,3894.3220,55592.8320,94723.8750,141738.0156,217.847473
-2659.6116,-2705.9243,178.6798,3533.9895,121872.5469,138689.5313,158107.8281,105583.8906,3314.9871,3615.9980,443.8162,4082.5237,103513.2969,91357.3438,110161.7344,118850.6797,3858.6709,4457.7871,4031.1370,55346.4023,95243.2578,141586.2500,217.851471
-658.5494,-655.1296,1795.4932,3575.7874,121882.2891,138560.3438,158101.6563,105080.5313,3508.6873,3621.4072,2249.0100,3999.8223,103548.2500,91221.1328,110219.2422,118386.4375,3831.8489,4153.0879,3951.3860,55440.0586,94895.4219,141658.1563,217.855469
3944.4346,3582.6270,3845.5728,3663.8977,121937.9453,138226.3281,158105.6406,103766.1797,3848.0762,3606.5879,4277.5874,3802.6350,103689.5391,90856.8438,110368.8672,116986.6094,3854.3569,3381.8860,3752.6565,55768.2031,94122.8359,141868.3906,217.859467
4627.8169,4105.5459,4045.1292,3686.6072,121957.2813,138157.0156,158113.2344,103472.6563,3907.5095,3609.2031,4490.3086,3771.2532,103734.7578,90777.3125,110401.0938,116621.0234,3883.5930,3059.1489,3712.3340,55865.7227,93992.4766,141916.5156,217.863464
1645.8483,1224.3391,2997.2124,3613.1370,121908.7109,138454.7969,158111.5625,104646.1484,3618.9932,3619.3062,3333.5613,3955.5435,103615.5547,91100.9688,110263.1875,117835.6172,3888.6670,3949.2178,3893.1372,55588.6953,94711.6250,141731.6094,217.867462
-2638.7798,-2699.4648,222.7128,3541.2539,121861.7734,138679.4531,158099.4688,105569.9922,3341.3845,3605.9622,485.0999,4078.4333,103505.2500,91347.3516,110151.6953,118835.5703,3859.2744,4455.8872,4030.5559,55341.7109,95233.6484,141579.9375,217.871460
-796.8620,-791.5646,1849.4503,3577.7766,121874.0000,138554.6094,158095.5625,105074.0469,3506.5640,3616.3779,2275.1841,3999.1963,103542.5078,91215.3438,110211.8203,118380.3984,3832.1169,4153.6470,3951.4307,55434.9375,94889.9453,141652.7969,217.875458
3895.9761,3529.2732,3855.2959,3666.7141,121933.0313,138222.8906,158102.3594,103762.3125,3849.1714,3615.3052,4284.8071,3805.3174,103686.0078,90853.3359,110363.7891,116984.1797,3852.0325,3375.2473,3750.0190,55760.3359,94114.2109,141860.1406,217.879456
4627.4814,4107.1553,4043.7881,3682.8298,121945.8125,138145.3281,158104.0781,103455.9141,3903.9109,3600.9106,4490.2642,3766.5146,103726.3047,90766.3594,110390.2578,116603.7031,3883.5930,3063.8877,3710.2554,55859.9336,93980.0547,141908.9688,217.883453
1565.8514,1168.1022,2984.7400,3611.5947,121900.3047,138445.8906,158105.1094,104629.6484,3616.3333,3614.9475,3372.7439,3953.1519,103609.8750,91091.8281,110255.4297,117818.3438,3890.1868,3950.9165,3892.3550,55584.9414,94698.5938,141725.0938,217.887451
-2674.1851,-2735.5627,303.8943,3534.7271,121857.3281,138674.4375,158096.1875,105560.1094,3314.6741,3616.2886,600.3679,4080.1543,103501.9375,91341.8281,110146.4844,118825.9844,3857.9333,4451.7969,4027.7170,55334.7383,95220.1250,141570.2500,217.891449
-746.7941,-736.5347,1909.3083,3572.4568,121864.5000,138546.1250,158088.3906,105064.1719,3502.8311,3611.6841,2331.4656,3996.8047,103535.6875,91207.6953,110202.4531,118370.5234,3833.3911,4154.1611,3951.9001,55429.6875,94882.2578,141645.9688,217.895447
3922.5969,3560.2976,3861.3755,3668.7705,121927.5078,138219.0625,158098.8750,103756.1016,3849.1938,3612.9805,4289.6123,3806.5913,103682.8359,90849.4688,110358.7422,116979.0313,3854.0664,3259.8230,3752.5225,55757.1836,94108.4844,141855.7031,217.899445
4647.0615,4122.6226,4059.3672,3693.5811,121948.5234,138146.8906,158107.4219,103450.9766,3911.7339,3617.0261,4505.2397,3774.3601,103730.0625,90767.1484,110392.6953,116600.9297,3885.0459,2925.7092,3711.3506,55858.4141,93971.2656,141906.0625,217.903442
1656.8453,1254.5587,3057.2268,3611.1477,121891.3672,138435.0938,158097.8594,104610.5000,3619.3955,3609.4490,3384.5903,3949.5308,103604.3359,91081.8125,110247.4688,117799.8828,3890.6338,3936.0750,3890.4998,55581.2109,94685.1797,141719.5156,217.907440
-2643.0044,-2707.6008,297.9041,3544.7854,121850.7578,138667.8438,158091.4219,105547.4375,3320.5303,3611.3713,545.9637,4079.8413,103498.4531,91335.4844,110140.9219,118814.1094,3860.9731,4451.2603,4028.7676,55331.6523,95210.5156,141564.7188,217.911438
-807.8591,-828.7133,1875.4008,3582.6270,121864.4141,138546.5938,158089.1719,105062.0938,3474.9810,3625.4751,2270.8030,4003.8455,103536.0234,91207.3594,110201.3125,118370.4297,3834.1287,4154.1387,3951.4529,55423.1367,94872.8906,141637.0313,217.915436
3895.1042,3516.8457,3863.2529,3664.4343,121915.3047,138207.5313,158088.8750,103742.4453,3844.6340,3605.7385,4289.8135,3801.8975,103673.1094,90838.6953,110346.5313,116965.7813,3854.2676,3380.5447,3750.6003,55749.1836,94097.3281,141845.6563,217.919434
4648.5815,4120.2085,4057.0203,3688.4177,121935.4688,138134.2031,158096.7656,103431.7734,3909.1189,3605.7385,4503.8989,3768.1240,103720.6953,90754.8516,110381.0703,116581.9531,3886.0518,3072.8953,3709.0930,55852.6250,93958.2578,141898.1719,217.923431
1650.0281,1235.1797,3064.4912,3618.9932,121890.8516,138433.3281,158098.0156,104599.9922,3626.8611,3624.5811,3439.1287,3954.8281,103604.9375,91078.7734,110246.8047,117790.7422,3891.0586,3942.5347,3888.2200,55577.0078,94671.6563,141712.9531,217.927429
-2640.2102,-2708.6067,427.6112,3541.1643,121838.4375,138654.8594,158080.8750,105528.9766,3345.4526,3604.1516,711.4337,4074.1641,103488.7500,91323.0313,110128.6953,118795.5156,3858.7156,4445.8066,4024.3420,55324.6563,95197.3281,141556.4063,217.931427
-750.9962,-749.0293,1941.1372,3577.2849,121850.2656,138534.0469,158077.4063,105047.5625,3504.1724,3611.8184,2326.5706,3997.5647,103524.8984,91195.4063,110187.6797,118355.5703,3833.4133,4152.9985,3949.5308,55415.9180,94863.5234,141628.2031,217.935425
3923.4685,3548.8982,3872.8867,3672.7490,121915.0156,138208.2969,158089.3281,103740.7656,3850.4456,3621.9436,4294.7759,3809.2065,103672.6172,90838.0000,110344.8359,116966.0703,3852.4348,3272.0718,3748.5215,55741.0000,94086.6250,141834.7500,217.939423
4654.8179,4125.2603,4059.9485,3686.7637,121925.5000,138122.7344,158088.0000,103413.8516,3905.6096,3603.6599,4506.2231,3764.4583,103711.9375,90743.1406,110370.3203,116563.9375,3882.4309,2985.9248,3704.1533,55843.3516,93940.9375,141885.3750,217.943420
1700.5653,1299.5974,3060.9148,3606.5879,121873.0859,138414.2656,158082.4688,104572.4766,3610.9465,3603.3916,3393.1511,3943.1382,103590.8984,91060.7344,110230.2813,117762.7578,3888.3765,3939.1147,3883.4590,55569.1836,94654.2500,141702.1406,217.947418
-2629.1462,-2697.7214,364.2887,3539.0410,121838.7734,138654.7500,158081.9844,105522.3359,3311.8801,3616.8250,606.9169,4080.9814,103490.2734,91322.0234,110128.8281,118790.6406,3860.6826,4444.7783,4024.7219,55321.2148,95187.4453,141550.4375,217.951416
-747.6882,-761.1439,1945.0264,3578.2012,121844.2969,138528.6875,158072.8281,105039.6953,3474.3774,3615.0593,2299.4802,3999.6211,103520.4922,91190.3281,110181.4453,118348.9297,3833.2571,4152.5962,3948.5696,55409.5469,94854.7422,141620.3750,217.955414
3920.0488,3540.2034,3870.5398,3663.6519,121898.2031,138193.2969,158075.4375,103723.2188,3841.1025,3601.0447,4289.6797,3800.3328,103660.1484,90824.7656,110329.8828,116948.8828,3853.3960,3327.7722,3748.3875,55735.8164,94079.0938,141829.1406,217.959412
4664.4512,4130.1104,4065.0669,3690.2058,121920.3984,138117.6406,158084.3906,103401.8906,3908.2246,3608.3760,4511.3867,3765.9783,103708.9844,90737.7734,110366.0000,116553.7500,3883.3250,2904.1843,3702.1416,55838.4102,93929.0234,141878.6094,217.963409
1750.8568,1324.9667,3101.4385,3612.6006,121867.3594,138406.9531,158077.8594,104556.4297,3620.3567,3611.1477,3426.7681,3943.6074,103586.6094,91052.6875,110224.4297,117747.5078,3886.2754,3915.3325,3878.7427,55561.7617,94636.6328,141691.2344,217.967407
-2594.7021,-2675.9954,436.9989,3537.8340,121818.4766,138634.7188,158064.2969,105496.5391,3341.6750,3595.5686,685.7068,4067.5256,103473.7344,91302.9141,110109.7188,118764.2266,3855.9216,4437.2905,4018.3071,55310.1055,95169.6563,141536.5156,217.971405
-697.2850,-749.2081,1868.2928,3576.4131,121832.8281,138518.5625,158063.0625,105027.2891,3497.0645,3612.5781,2301.3579,3994.1001,103510.5469,91179.7578,110169.5781,118337.7500,3828.3843,4147.6567,3942.8699,55397.6133,94840.6641,141606.4375,217.975403
3937.3938,3547.6912,3855.0947,3666.2000,121892.4609,138188.0000,158070.8906,103715.6250,3842.3318,3610.3208,4283.0635,3801.0928,103654.8516,90818.9531,110322.9766,116943.2734,3849.8196,3350.4817,3743.7830,55725.4453,94066.2188,141816.9688,217.979401
4660.8525,4118.3086,4058.5625,3680.2371,121902.8594,138099.6406,158069.3438,103377.8438,3900.0664,3590.4277,4503.7871,3754.6011,103695.2344,90721.2344,110349.6641,116529.8359,3879.5920,2994.5078,3697.3359,55830.4766,93914.2734,141869.1563,217.983398
4660.8525,4118.3086,4058.5625,3680.2371,121902.8594,138099.6406,158069.3438,103377.8438,3900.0664,3590.4277,4503.7871,3754.6011,103695.2344,90721.2344,110349.6641,116529.8359,3879.5920,2994.5078,3697.3359,55830.4766,93914.2734,141869.1563,217.987396
1815.8109,1338.5565,3118.7166,3610.6335,121858.7969,138397.3906,158071.0781,104538.3203,3614.5898,3607.1245,3429.4951,3940.6572,103580.9063,91043.6328,110216.9375,117730.1875,3886.3870,3918.9312,3877.0217,55558.4766,94624.8125,141686.6563,217.991394
-2564.6167,-2655.7000,530.0493,3536.2917,121817.0234,138632.4844,158064.0000,105488.7188,3342.4351,3607.0349,753.5667,4072.4653,103473.6406,91300.6797,110107.8828,118757.2734,3858.6038,4437.4917,4019.2683,55308.2500,95161.8359,141532.8750,217.995392
-750.5492,-780.3888,1949.9437,3572.5686,121822.3203,138509.7031,158055.1719,105016.7188,3505.7815,3602.7212,2331.7114,3991.9321,103503.3672,91172.3125,110159.8516,118326.9531,3832.2734,4151.7471,3946.1108,55395.4648,94836.7500,141602.5156,217.999390
3919.8030,3537.2305,3866.8740,3668.0105,121885.7813,138183.0781,158066.3438,103708.8281,3841.6611,3607.2139,4285.2988,3802.6797,103650.4453,90814.4844,110316.5625,116937.1016,3853.3960,3330.2756,3747.3369,55723.0742,94061.8359,141812.2656,218.003387
4675.5156,4135.8101,4070.8784,3690.4517,121903.9297,138099.9375,158071.3906,103371.7891,3907.1519,3603.6152,4515.4990,3762.5137,103696.4219,90720.0313,110349.2656,116523.6641,3884.7107,2866.2087,3700.7559,55829.3359,93905.3281,141863.8125,218.007385
4675.5156,4135.8101,4070.8784,3690.4517,121903.9297,138099.9375,158071.3906,103371.7891,3907.1519,3603.6152,4515.4990,3762.5137,103696.4219,90720.0313,110349.2656,116523.6641,3884.7107,2866.2087,3700.7559,55829.3359,93905.3281,141863.8125,218.011383
1799.7625,1352.0123,3119.4988,3610.3208,121848.7188,138386.5469,158062.9063,104519.1641,3615.0593,3599.0330,3431.7080,3937.0808,103573.4844,91032.5703,110207.1719,117710.3828,3888.3318,3895.4619,3876.8428,55554.9922,94611.7109,141679.4063,218.015381
-2588.2649,-2679.1023,469.2749,3537.4988,121807.9063,138623.6563,158056.5313,105473.4297,3286.1086,3603.1904,687.8302,4070.0513,103466.8047,91291.4688,110098.9922,118742.4766,3858.2014,4434.6084,4017.4578,55302.0586,95149.0703,141523.6563,218.019379
-763.7814,-803.3440,1900.0547,3575.9661,121819.7969,138507.6563,158053.7813,105011.7813,3476.7019,3613.6958,2320.8262,3996.1565,103501.5391,91169.7188,110156.1172,118323.4453,3832.8994,4152.3281,3945.9546,55389.6563,94828.0078,141594.5625,218.023376
3919.9817,3537.6104,3851.1831,3663.2944,121873.3984,138171.7500,158056.2500,103695.3047,3836.4756,3598.3848,4278.5259,3797.3823,103640.7188,90804.2031,110304.5156,116924.2734,3852.5688,3347.3076,3745.5042,55715.5898,94052.1328,141803.4688,218.027374
4678.0859,4132.0776,4072.8452,3689.7813,121895.4375,138091.3281,158064.8438,103356.4063,3907.7329,3600.2178,4516.5049,3759.6750,103691.5078,90712.4922,110342.4922,116510.1172,3884.2412,2957.9851,3699.7278,55825.6719,93895.6094,141859.7656,218.031372
1865.1189,1384.3552,3174.8640,3620.2002,121849.5938,138385.1250,158064.7188,104509.1094,3625.8999,3613.6287,3459.1111,3942.9817,103576.3047,91031.5859,110208.4219,117702.0000,3891.5056,3906.1013,3878.3853,55554.8789,94602.5703,141678.0625,218.035370
-2543.7625,-2641.2607,567.9802,3547.7358,121803.3203,138618.2969,158053.9375,105462.7031,3334.0754,3601.5364,746.5259,4071.8171,103465.0781,91287.3125,110095.1016,118731.6328,3864.5718,4438.2295,4022.1292,55303.1992,95144.3750,141523.4375,218.039368
-804.1710,-871.4274,1974.7542,3582.0681,121813.7813,138503.2500,158049.6563,105005.1641,3490.2471,3612.0195,2341.0994,3998.0117,103497.7578,91165.5234,110150.6406,118317.6797,3836.0510,4155.3901,3948.1672,55385.8086,94822.4922,141589.1719,218.043365
3901.4075,3496.3044,3875.4124,3679.2981,121875.8516,138174.9219,158059.5469,103696.1094,3844.4104,3616.8250,4291.3335,3808.7148,103643.6250,90806.8438,110306.0078,116927.3594,3856.2122,3353.7227,3748.8120,55713.1055,94046.7734,141798.7188,218.047363
4686.9146,4142.4038,4078.7686,3697.1348,121890.3359,138085.3594,158061.3125,103344.3828,3909.1858,3599.0330,4521.7354,3762.1113,103689.0234,90707.3125,110337.6641,116498.5859,3889.8962,2962.5896,3703.2368,55825.7578,93888.1172,141856.9688,218.051361
1818.6273,1356.0580,3122.6504,3622.1448,121843.8672,138378.7500,158060.5156,104493.5781,3628.3140,3611.7959,3444.5825,3942.7805,103573.2656,91024.8125,110203.2813,117686.8516,3895.5959,3905.3413,3879.9497,55553.9609,94592.3594,141674.2188,218.055359
-2588.0190,-2685.1597,587.3591,3552.2061,121801.9375,138616.2656,158053.2031,105454.0313,3314.4282,3617.6074,783.5851,4076.9358,103463.9453,91283.8047,110092.2578,118724.2109,3864.1470,4435.2119,4019.8494,55296.7852,95131.1641,141513.3750,218.059357
-800.0583,-844.6724,2013.3109,3578.4917,121803.9297,138494.2656,158041.8281,104994.5234,3478.6912,3607.5491,2359.0476,3996.4248,103489.8672,91157.0938,110139.9609,118306.7266,3837.4368,4157.6255,3948.7039,55379.8633,94814.4219,141580.1094,218.063354
3902.1228,3509.7603,3872.4172,3670.7598,121863.9609,138165.0313,158050.0469,103683.9063,3839.4485,3605.6267,4284.5610,3803.9763,103634.1719,90796.8047,110294.2344,116914.8828,3856.9500,3241.8298,3748.6780,55706.0898,94038.2344,141789.2500,218.067352
1869.3881,1413.4125,3194.5784,3620.7813,121834.8594,138368.2969,158052.7969,104475.4688,3628.1350,3606.9680,3488.4143,3939.8972,103565.9063,91013.9297,110193.8047,117668.5156,3895.7524,3905.1848,3878.4968,55548.7539,94578.7891,141666.2031,218.071350
-2567.1873,-2656.1248,578.8878,3561.1021,121820.2891,138632.6875,158063.2344,105456.1094,3377.3484,3613.4053,785.0156,4081.4507,103466.3359,91282.9141,110092.4219,118725.2188,3883.8613,4449.9639,4040.3682,55297.0508,95125.6875,141511.2344,218.075348
3886.2754,3494.0693,3881.7378,3683.2991,121909.0703,138203.0469,158074.3438,103703.6875,3852.4570,3616.0874,4290.3501,3813.8110,103640.7188,90801.2969,110298.7031,116933.0156,3885.0906,3415.2571,3779.7915,55699.4258,94028.0625,141779.1250,218.079346
4689.9771,4148.1260,4081.6519,3703.2593,121925.9922,138112.3906,158077.1875,103342.3281,3920.3394,3602.3857,4530.7432,3766.5146,103687.9297,90699.4844,110332.9688,116494.6484,3915.7126,3072.6941,3729.7683,55812.2813,93860.9141,141837.3438,218.083344
1859.1957,1436.5242,3157.6755,3638.6851,121886.0469,138409.5938,158081.5625,104492.0078,3649.9727,3627.7998,3494.5386,3953.3081,103577.8203,91020.8359,110204.2656,117683.6484,3922.5745,3929.8389,3907.1072,55544.4414,94564.8828,141657.9063,218.087341
-2571.2776,-2659.2317,636.0859,3567.6511,121842.0391,138647.0000,158072.6094,105458.0547,3396.4146,3622.4578,885.2184,4085.9658,103467.2500,91281.1016,110091.2813,118725.6016,3895.4619,4457.9658,4052.4604,55291.0391,95114.1328,141502.1406,218.091339
-806.2050,-854.3954,1999.9893,3595.5239,121847.3125,138530.6094,158064.3281,105010.7969,3525.4512,3617.4509,2365.9097,4009.8804,103494.9219,91159.8906,110141.1016,118321.3438,3869.3328,4186.0122,3983.7065,55373.2031,94804.0469,141569.1094,218.095337
3899.8875,3507.1675,3883.0344,3690.9658,121912.2891,138205.2813,158076.6250,103704.2891,3857.0840,3625.2517,4298.5308,3821.7012,103642.2656,90803.1094,110298.9688,116934.7578,3888.7117,3337.6519,3783.5691,55698.9141,94026.7656,141777.4375,218.099335
4704.2373,4159.6372,4093.7219,3714.1445,121931.5313,138114.9063,158081.6094,103340.4922,3927.1567,3617.2051,4541.5615,3776.7964,103691.1016,90701.2734,110334.7109,116492.7266,3920.9204,2994.2620,3733.9929,55812.9531,93855.8203,141834.5781,218.103333
1919.1877,1460.2841,3197.6628,3634.6394,121877.4844,138398.2813,158073.5000,104474.8672,3642.9319,3614.3440,3507.1897,3949.8438,103569.8906,91010.4688,110194.0938,117664.5859,3926.3967,3943.8086,3909.3870,55543.9492,94556.7266,141654.2031,218.107330
-2546.8472,-2639.6292,612.7954,3565.8630,121838.8828,138641.9688,158069.3125,105448.8672,3379.5613,3624.3352,827.4615,4087.9998,103463.2734,91275.8047,110085.5781,118715.6328,3897.3394,4459.1953,4053.4216,55288.0664,95106.0859,141496.6875,218.111328
3895.5291,3516.4434,3878.0276,3685.5791,121901.9844,138195.1250,158067.4375,103694.5234,3851.6748,3613.0251,4282.1919,3817.5884,103632.6953,90794.0781,110287.1875,116924.3203,3890.0081,3403.0083,3785.1113,55694.9141,94022.5000,141772.5469,218.115326
4705.3550,4166.4097,4093.9231,3713.2058,121925.6797,138107.5156,158076.1563,103328.4219,3926.8884,3614.7463,4540.1533,3775.3435,103686.0938,90694.4141,110328.2031,116480.9688,3920.5183,2951.8606,3733.3223,55810.3164,93848.3594,141831.6094,218.119324
1947.5298,1544.8632,3224.7532,3640.3391,121877.1953,138395.2031,158073.0469,104465.5703,3650.8667,3625.0728,3524.0205,3953.6882,103569.2422,91007.3125,110192.1953,117655.6875,3926.0837,3903.3296,3908.2024,55541.3555,94547.0469,141650.0156,218.123322
-2536.7217,-2619.3562,668.8089,3563.1138,121827.1250,138629.0625,158058.5000,105432.5703,3397.5544,3612.9136,863.2467,4081.4954,103452.4531,91263.5781,110072.7031,118697.9063,3895.0818,4456.8481,4050.3818,55281.5391,95095.2500,141487.7813,218.127319
-927.3292,-940.4272,1946.9486,3598.2507,121840.0938,138523.0313,158057.4063,105002.3672,3531.4861,3626.5928,2318.7251,4014.2168,103485.5078,91151.3906,110128.5156,118312.3828,3868.8186,4189.8120,3983.1477,55361.5586,94790.8594,141553.3281,218.131317
3852.9712,3485.9556,3867.4775,3688.6858,121899.6797,138192.6875,158065.2656,103692.0000,3853.5300,3623.2847,4285.7012,3821.2764,103628.8047,90790.9688,110281.9375,116921.9922,3888.4880,3419.8391,3783.7703,55687.6719,94014.6719,141763.0000,218.135315
4699.0293,4156.2397,4091.0620,3709.4731,121916.3750,138097.0313,158067.8281,103313.9609,3923.8933,3607.1467,4536.0181,3771.3203,103677.8047,90684.5313,110317.8828,116465.8359,3920.5852,3049.7390,3732.1602,55805.8438,93839.0781,141825.3281,218.139313
1904.5920,1458.7642,3254.0786,3640.7190,121872.3438,138388.6094,158068.5156,104452.0234,3649.4810,3624.2012,3525.9651,3953.5317,103565.2422,91000.4531,110186.5156,117641.9844,3927.2908,3924.0720,3908.0012,55539.5000,94537.7266,141646.2031,218.143311
-2541.4827,-2630.2637,714.5629,3569.8640,121831.3984,138631.9219,158062.6875,105431.5859,3373.3252,3629.0515,861.1233,4090.9949,103456.5469,91266.1719,110075.3203,118697.7266,3899.5076,4461.0278,4054.1816,55282.8359,95092.3672,141487.9063,218.147308
-890.5158,-923.3729,1966.5958,3597.3567,121834.3516,138517.7813,158052.8281,104997.2266,3521.3831,3622.7483,2312.3325,4014.9319,103480.7266,91147.0391,110121.6953,118306.9063,3871.4561,4194.8188,3986.0088,55359.1445,94788.2266,141550.0156,218.151306
3861.7107,3481.2617,3871.0984,3688.8423,121894.0469,138187.6719,158060.5625,103686.2500,3852.0771,3620.2673,4282.1025,3821.9023,103623.7578,90786.2813,110275.2969,116916.4297,3888.1753,3390.3796,3784.9995,55683.2656,94009.2422,141756.6875,218.155304
4708.2832,4166.6777,4097.3877,3714.6587,121915.6406,138094.4219,158066.8750,103307.1406,3927.0449,3617.9873,4541.0249,3775.5225,103675.8359,90681.0938,110314.6641,116459.1328,3918.3276,2967.2834,3730.5730,55800.5234,93828.1250,141817.0313,218.159302
1936.7115,1488.9838,3227.2119,3637.0535,121862.5078,138376.8438,158059.3125,104434.3438,3647.5811,3616.4897,3519.7068,3948.3237,103556.1406,90988.8750,110175.6563,117623.2813,3924.8992,3899.2617,3904.4697,55533.4883,94524.7656,141637.8438,218.163300
-2560.0569,-2654.2024,578.5078,3572.6357,121825.0703,138625.1563,158056.9844,105419.9844,3335.5283,3624.2905,743.0390,4089.7432,103450.6641,91258.8359,110068.1875,118685.7656,3899.1499,4459.9775,4052.7288,55277.9844,95082.9766,141481.2188,218.167297
-978.7382,-987.3659,1916.4608,3604.6433,121834.9922,138518.2031,158053.2656,104996.7813,3469.1023,3636.1145,2266.2881,4021.4141,103480.0313,91146.5469,110119.8672,118307.6484,3870.6292,4195.8916,3984.9360,55353.1328,94781.6563,141542.8906,218.171295
3827.5127,3464.8108,3867.0974,3686.8308,121886.3828,138180.4531,158053.8438,103678.8516,3849.5515,3616.8474,4280.7612,3820.6060,103616.4922,90779.2813,110266.0469,116909.2500,3889.8516,3436.2007,3785.2007,55678.0820,94003.8828,141751.0469,218.175293
4707.8135,4166.1416,4098.0132,3713.8762,121908.4922,138086.6406,158060.5313,103294.0234,3928.6318,3614.7463,4540.8237,3773.8684,103669.2891,90672.5313,110306.5000,116445.3438,3920.0264,3081.0537,3730.0366,55795.9219,93817.5547,141810.0313,218.179291
1933.1129,1494.0800,3291.3835,3644.2954,121863.2031,138375.0156,158059.7500,104425.2031,3656.0076,3632.8066,3561.0798,3954.0906,103555.9219,90985.5703,110174.2266,117614.7188,3924.0945,3917.7913,3902.1003,55528.2344,94510.8359,141629.4531,218.183289
-2530.2397,-2615.2434,749.6552,3565.1030,121811.6172,138609.8906,158044.3750,105400.8984,3383.1599,3615.0146,873.8414,4082.4790,103438.2344,91244.2422,110053.3438,118665.8281,3894.6125,4454.4565,4047.0291,55268.1719,95067.5313,141468.6719,218.187286
-919.4166,-948.9656,1981.7727,3597.8708,121822.1016,138505.9531,158041.6719,104982.7656,3515.2588,3623.8435,2286.6504,4015.1777,103468.5469,91134.7188,110106.3438,118293.4297,3868.1033,4194.3271,3981.6948,55345.1758,94771.7031,141532.9219,218.191284
3847.7856,3468.7896,3880.1509,3694.2068,121887.2969,138181.2969,158054.7969,103677.9141,3854.8040,3632.1807,4284.9185,3827.8032,103616.6016,90779.5078,110265.0859,116910.4141,3887.6611,3415.3689,3783.7256,55672.3594,93996.4141,141743.7813,218.195282
4712.9990,4170.7012,4099.5557,3713.4292,121902.2969,138078.5469,158055.1719,103281.1016,3926.6650,3611.8406,4541.9414,3772.9519,103664.8828,90665.8906,110300.1328,116433.6094,3919.9148,3081.0984,3729.6343,55793.9297,93810.0000,141807.3125,218.199280
1970.3286,1520.3879,3219.6792,3643.4460,121856.4063,138366.2813,158054.0781,104408.3438,3653.8171,3623.4636,3512.1072,3951.6990,103551.6016,90977.6953,110167.9688,117597.8438,3928.1177,3919.6687,3904.1121,55529.7109,94503.4844,141629.0469,218.203278
-2541.2590,-2637.9976,658.2142,3575.2954,121815.2109,138611.8125,158047.4531,105396.4766,3357.0308,3632.9854,799.5889,4090.6372,103440.2734,91244.0234,110054.2188,118662.1250,3895.4395,4453.5625,4046.4702,55264.5742,95057.1172,141461.7031,218.207275
-916.4885,-940.9861,2003.5879,3597.6025,121815.6641,138498.6250,158035.6094,104974.0469,3476.2327,3624.0222,2302.1401,4014.9097,103462.0625,91127.5703,110097.6016,118285.1563,3866.6057,4194.0366,3979.8621,55337.1719,94761.3594,141522.0781,218.211273
3839.6719,3463.8496,3876.5747,3684.4167,121871.8984,138165.9375,158040.7813,103660.8125,3846.0198,3614.1428,4278.0342,3818.7729,103603.4844,90765.5547,110249.3750,116893.3125,3886.5881,3388.1443,3781.1997,55663.8203,93985.5469,141732.8281,218.215271
4725.0693,4182.7041,4109.8599,3721.6548,121904.1328,138078.7969,158056.6875,103274.9141,3937.8184,3628.6267,4551.3066,3779.7246,103666.6016,90665.2188,110300.4688,116429.2266,3921.7029,2977.8335,3729.4778,55790.4883,93800.1641,141801.5000,218.219269
2020.7765,1578.4578,3299.0281,3647.3799,121853.8125,138360.7969,158051.3750,104395.1563,3660.5227,3629.9902,3579.4082,3953.8447,103549.5469,90972.1563,110164.0078,117585.5469,3928.7883,3917.2324,3902.9272,55526.2891,94491.8594,141623.5156,218.223267
-2504.6470,-2599.7761,807.9932,3572.3899,121806.7891,138601.9063,158040.2656,105381.3828,3407.8362,3620.3789,939.6450,4087.4187,103435.4688,91236.5078,110046.5547,118646.8750,3901.6533,4458.1445,4051.3652,55267.3008,95054.7266,141463.8125,218.227264
-863.8278,-897.2884,1935.5715,3606.8562,121818.4141,138501.3750,158038.5156,104974.2500,3529.3628,3636.9639,2235.3533,4023.3362,103464.9688,91130.0938,110098.7422,118286.5000,3871.9031,4200.4067,3984.5559,55337.8203,94760.5078,141521.6094,218.231262
3857.8215,3475.8079,3872.9536,3691.8599,121872.6797,138166.3906,158041.6406,103659.5859,3850.6021,3626.5928,4271.5972,3825.8140,103602.6094,90764.8672,110246.8047,116892.5078,3888.5105,3430.7468,3782.6973,55659.5977,93979.6016,141726.2188,218.235260
4723.6611,4180.0444,4104.2495,3713.4292,121890.1797,138063.2969,158044.0313,103253.7422,3927.2236,3608.7114,4545.2046,3771.1638,103654.2031,90650.5781,110285.6016,116407.0078,3921.5239,3059.0820,3727.7122,55784.7461,93787.7344,141793.0000,218.239258
2076.3877,1631.4314,3259.3088,3648.2068,121848.5391,138353.1094,158046.1875,104379.3125,3657.3040,3630.7725,3539.5103,3952.8835,103544.7656,90964.1797,110157.5313,117570.3516,3927.8271,3911.2200,3900.2451,55521.3047,94478.2031,141615.9375,218.243256
-2490.9006,-2590.3213,799.0302,3577.7988,121806.0703,138599.2656,158039.2969,105373.1172,3397.5320,3631.2866,913.8287,4091.5090,103434.3672,91233.2500,110043.8281,118640.2422,3900.7815,4455.6191,4049.0630,55261.6680,95043.4141,141456.0000,218.247253
-919.6401,-933.6100,2017.4907,3599.7036,121806.3672,138489.3438,158027.8125,104960.3438,3521.6514,3621.9883,2290.3608,4017.5696,103455.0234,91119.3672,110086.3828,118272.9531,3872.2385,4201.5244,3984.3994,55332.6133,94753.4688,141515.1094,218.251251
3844.0081,3470.5999,3881.4026,3692.8210,121868.2578,138162.2344,158038.0781,103653.4844,3850.6689,3625.6316,4276.9839,3827.0432,103599.6641,90761.4688,110242.0625,116888.3281,3890.7681,3407.2998,3784.6418,55657.2734,93976.0547,141723.7188,218.255249
4730.2773,4186.2134,4112.2515,3719.5759,121890.0234,138060.9375,158043.8438,103246.2344,3932.5881,3620.2002,4552.1563,3775.7236,103654.0625,90647.9844,110283.7031,116400.6641,3923.2451,2965.8752,3727.8909,55781.8398,93778.6875,141787.9219,218.259247
2072.5208,1635.6335,3302.2244,3643.8706,121838.2578,138340.1094,158037.0625,104359.0625,3654.5771,3618.9260,3573.5520,3947.4744,103536.4297,90952.2188,110146.6016,117548.7344,3929.6824,3904.3579,3900.2898,55518.7344,94466.5625,141609.7656,218.263245
-2487.0115,-2584.5544,802.3159,3574.6919,121797.6484,138589.5313,158031.6563,105357.9609,3364.0044,3626.1233,910.0736,4088.7598,103426.8594,91223.5703,110034.0781,118624.0547,3900.6252,4454.1436,4047.8113,55256.6172,95032.2578,141447.2813,218.267242
-878.8929,-924.4457,1943.9758,3604.5093,121805.0703,138487.4063,158026.6563,104956.8125,3510.5649,3633.0078,2255.9839,4022.0623,103452.8984,91117.0156,110082.3125,118269.7578,3872.1714,4202.7759,3984.0642,55327.2930,94746.2734,141507.2500,218.271240
3851.8535,3471.0469,3863.1860,3688.6636,121858.1719,138152.2813,158029.1563,103641.8828,3845.4609,3616.4451,4265.4058,3823.5786,103591.0078,90752.5469,110231.1563,116877.0469,3890.4775,3429.3162,3784.3291,55651.8398,93968.8125,141716.3750,218.275238
4735.7534,4186.3477,4114.0845,3720.8276,121885.4219,138055.7500,158040.0000,103235.1719,3932.8340,3618.1438,4553.4526,3776.6848,103650.8906,90643.0000,110278.9688,116390.5781,3923.0886,2987.8694,3728.5391,55780.0273,93771.5781,141784.7344,218.279236
2160.0725,1658.2089,3324.4644,3651.4927,121839.6016,138339.3438,158038.2500,104350.6563,3663.1379,3631.6890,3597.1555,3953.6211,103538.3984,90951.1016,110147.1563,117542.1406,3930.0847,3887.1694,3900.2451,55517.6875,94458.0469,141607.3750,218.283234
-2446.4207,-2563.8792,868.2088,3571.5627,121787.5234,138578.3281,158022.6094,105341.8438,3392.2346,3616.9146,964.5225,4084.5129,103418.7031,91213.1719,110023.7344,118608.2500,3899.6194,4451.9531,4045.8892,55251.4297,95021.6172,141440.3438,218.287231
-1015.1715,-1059.9197,2013.7579,3599.0779,121793.2656,138476.3125,158015.9688,104944.0703,3514.0071,3623.9106,2283.7671,4017.0776,103441.9922,91105.9063,110069.5547,118257.2891,3868.2375,4200.5186,3980.2419,55317.0117,94734.3125,141494.7813,218.291229
3790.4534,3405.6458,3876.0159,3692.1504,121855.1797,138149.0625,158026.4063,103638.2813,3846.8916,3626.3022,4270.3901,3826.5737,103586.6719,90748.5234,110225.3438,116873.9844,3888.0635,3423.7507,3782.4739,55642.9883,93959.0625,141705.6719,218.295227
4730.1206,4184.1123,4111.4468,3716.4468,121875.0938,138043.7813,158030.5313,103218.6094,3929.0120,3610.6782,4549.4067,3771.0967,103641.4141,90631.5156,110267.6094,116373.7500,3921.5239,2998.3076,3725.7004,55772.9883,93759.1719,141776.0625,218.299225
2034.6345,1573.4957,3285.1028,3649.6821,121832.1328,138330.3438,158031.5625,104334.2500,3661.6851,3628.1128,3589.8689,3950.0671,103531.6641,90941.6641,110138.9297,117525.7109,3929.6377,3893.7632,3898.2559,55512.6992,94445.6797,141600.7031,218.303223
-2525.4788,-2632.9460,834.0330,3582.3811,121792.6641,138582.0000,158027.4375,105340.7500,3369.1230,3636.9863,942.2154,4093.6772,103422.7734,91215.8594,110026.6563,118608.1641,3902.9722,4454.6133,4048.5491,55250.6055,95016.4375,141438.4375,218.307220
-994.1832,-1015.2833,1990.6462,3602.3635,121790.8516,138474.1250,158014.5625,104940.5391,3503.9934,3625.5422,2248.2725,4020.7659,103440.4688,91104.5000,110065.9766,118254.0938,3873.4231,4207.2017,3985.4500,55316.8555,94733.3984,141493.7813,218.311218
4741.7661,4197.1880,4122.5107,3727.8237,121879.1875,138047.0000,158034.7344,103216.6406,3938.4219,3629.9678,4559.6885,3781.6914,103644.5469,90633.1719,110269.6250,116372.9219,3922.7087,2909.1689,3727.9133,55771.4688,93752.3516,141771.9844,218.315216
2116.7996,1664.0649,3348.9170,3650.8667,121826.0313,138322.3594,158026.4219,104319.5234,3663.3838,3624.9612,3604.6433,3950.6260,103526.9297,90933.9766,110132.2031,117510.3828,3931.6716,3891.3044,3899.5747,55511.6719,94436.6328,141596.7813,218.319214
-2477.2886,-2579.3018,838.0563,3577.3518,121780.6172,138569.8438,158016.8594,105323.6094,3368.9890,3623.6199,881.0834,4089.2739,103412.2656,91203.4922,110014.2344,118590.1719,3901.5193,4452.5791,4046.5149,55244.5703,95004.8984,141429.1563,218.323212
-1059.0703,-1079.2987,1960.2256,3610.6782,121792.2344,138476.1563,158016.3438,104941.3438,3484.7710,3640.4285,2159.6926,4030.2651,103440.7656,91105.2188,110065.4609,118256.2578,3873.6465,4209.5933,3985.9417,55312.0703,94727.4297,141486.7813,218.327209
4733.8535,4190.9072,4115.1123,3720.4253,121866.0000,138033.5313,158023.2813,103198.7578,3932.7446,3616.1321,4551.2397,3774.0696,103633.5938,90620.6484,110256.8828,116355.0156,3922.3286,3065.0498,3725.4546,55765.1406,93741.0859,141764.0313,218.331207
2069.2798,1618.9814,3306.2251,3657.4158,121826.2813,138321.0313,158026.5156,104311.2031,3671.5645,3641.7920,3603.2798,3955.2305,103525.9922,90930.8516,110130.5938,117502.8516,3929.5037,3896.3784,3896.2219,55504.7422,94422.1719,141587.0313,218.335205
-2505.7200,-2607.1521,876.9036,3577.7542,121774.7813,138562.9219,158011.8125,105312.8984,3398.7837,3627.0398,954.3300,4088.3799,103406.5625,91196.6563,110006.9688,118579.1953,3900.5803,4451.2158,4045.1963,55238.6680,94994.5313,141421.5313,218.339203
-1021.5194,-1011.9976,2023.2798,3599.1672,121774.9375,138459.8594,158000.9844,104924.6484,3507.7932,3621.2729,2235.9790,4018.9106,103425.6953,91090.2188,110048.1172,118238.9141,3869.8020,4207.6934,3982.4773,55302.7734,94717.8359,141477.0156,218.343201
3781.5574,3423.5496,3876.1946,3693.0222,121836.9219,138133.6406,158011.2656,103620.0703,3844.3210,3629.3420,4259.0576,3828.9431,103569.4844,90732.9063,110203.8828,116858.5625,3884.0400,3345.4749,3780.4397,55623.7891,93937.7813,141682.3594,218.347198
4732.7583,4192.2036,4113.5928,3719.5759,121858.3516,138024.9375,158016.2813,103186.2891,3931.0234,3618.0767,4548.9150,3772.4827,103625.5703,90611.6406,110247.6953,116342.4609,3917.3889,2950.2515,3721.4758,55756.1133,93726.7422,141752.5000,218.351196
2120.6440,1681.2534,3333.1143,3647.8716,121810.2109,138304.3438,158012.6563,104288.5234,3659.5168,3620.1555,3591.6123,3945.4404,103512.9844,90915.5859,110115.7109,117479.3750,3928.4531,3898.2112,3894.8584,55500.2969,94410.8359,141581.0625,218.355194
-2478.3389,-2571.3669,844.6500,3582.5151,121772.7891,138560.9375,158010.6719,105306.4219,3382.7800,3633.3877,872.2321,4092.9619,103405.2656,91194.3516,110004.7969,118574.1641,3901.3628,4451.8413,4046.0903,55236.5664,94988.2969,141418.3906,218.359192
-1026.0791,-991.2328,1975.4918,3608.5549,121777.6406,138463.3125,158004.3906,104927.0234,3499.4783,3636.0476,2136.0444,4029.2595,103427.6641,91093.1016,110049.2578,118242.3750,3873.5349,4213.6836,3987.1040,55302.0117,94716.0938,141474.5938,218.363190
-1026.0791,-991.2328,1975.4918,3608.5549,121777.6406,138463.3125,158004.3906,104927.0234,3499.4783,3636.0476,2136.0444,4029.2595,103427.6641,91093.1016,110049.2578,118242.3750,3873.5349,4213.6836,3987.1040,55302.0117,94716.0938,141474.5938,218.367188
3776.5730,3430.1208,3877.5359,3691.8599,121829.7656,138128.1719,158006.5781,103614.2578,3843.2483,3620.1777,4252.9556,3829.5913,103564.3906,90728.8828,110197.0000,116852.3906,3891.1257,3423.9294,3788.1289,55625.6445,93939.3047,141683.1719,218.371185
4740.1118,4203.5806,4119.9854,3727.5110,121860.0078,138026.8438,158019.2031,103183.4063,3941.4170,3629.2974,4554.5703,3780.3728,103628.1797,90613.4531,110249.3281,116340.6484,3924.3628,2923.1162,3727.2874,55759.4180,93725.6250,141754.7188,218.375183
2162.4194,1742.2067,3357.3213,3657.5947,121813.2734,138305.7344,158016.2969,104283.1094,3672.9727,3637.7017,3613.3606,3953.8894,103515.9766,90916.5000,110117.8984,117474.7969,3931.8728,3877.1782,3897.2725,55501.3008,94404.4453,141580.0625,218.379181
2162.4194,1742.2067,3357.3213,3657.5947,121813.2734,138305.7344,158016.2969,104283.1094,3672.9727,3637.7017,3613.3606,3953.8894,103515.9766,90916.5000,110117.8984,117474.7969,3931.8728,3877.1782,3897.2725,55501.3008,94404.4453,141580.0625,218.383179
-2450.2205,-2542.6226,904.1727,3577.2178,121761.2109,138549.3906,158001.3750,105291.2188,3418.4087,3623.3071,939.5332,4087.8210,103395.7891,91183.9375,109993.4688,118557.3359,3902.7485,4452.8696,4047.3867,55233.6602,94980.5859,141413.0469,218.387177
-1018.0549,-1037.4562,1891.7399,3606.9902,121769.9063,138457.0781,157998.5156,104920.6953,3528.1111,3635.6675,2157.4351,4027.4490,103420.4219,91087.0859,110040.8047,118235.6016,3873.1995,4215.8071,3987.6182,55295.9336,94709.4375,141466.3750,218.391174
3782.4961,3426.2095,3853.3064,3698.2078,121829.5391,138128.7188,158007.5156,103614.9531,3848.0315,3631.9573,4247.6357,3835.6709,103563.3594,90729.0547,110195.2813,116853.9297,3892.8691,3453.1208,3790.6099,55621.5547,93934.6563,141677.6406,218.395172
4735.2842,4197.3667,4115.4702,3724.2029,121850.5078,138017.2813,158011.9375,103170.8906,3935.3149,3616.0427,4549.1387,3776.5283,103620.4688,90604.7188,110240.1172,116327.4375,3926.1062,3048.9790,3729.9695,55757.1406,93719.1172,141751.5000,218.399170
2194.7400,1739.6586,3345.0725,3657.9971,121807.0781,138298.8906,158011.8281,104270.7500,3669.7317,3633.9688,3595.1216,3952.7717,103511.3516,90909.7266,110112.0234,117462.1719,3933.1917,3894.7690,3898.9265,55499.5352,94395.9531,141576.8125,218.403168
-2429.9028,-2528.1387,877.6412,3582.7163,121760.2734,138547.9063,158001.2500,105286.4141,3391.4971,3632.9182,895.4556,4092.3584,103394.9453,91182.1016,109991.6094,118553.4063,3902.8604,4453.0483,4047.8560,55230.5547,94973.2031,141408.7031,218.407166
-2429.9028,-2528.1387,877.6412,3582.7163,121760.2734,138547.9063,158001.2500,105286.4141,3391.4971,3632.9182,895.4556,4092.3584,103394.9453,91182.1016,109991.6094,118553.4063,3902.8604,4453.0483,4047.8560,55230.5547,94973.2031,141408.7031,218.411163
-1072.3025,-1060.0985,1929.2238,3604.2856,121761.3906,138450.1250,157991.9531,104914.1484,3517.5386,3628.2021,2147.3096,4025.9961,103413.3828,91080.8047,110031.9531,118228.7422,3874.2947,4219.6294,3989.8533,55292.5352,94705.8594,141461.8438,218.415161
3748.2310,3406.9199,3857.7769,3695.6597,121820.8438,138122.2500,158000.5156,103609.2500,3845.0139,3628.4255,4240.8188,3834.5310,103555.0234,90722.1250,110185.5391,116847.9844,3890.5891,3443.4648,3790.0288,55614.1563,93927.3203,141667.7031,218.419159
4737.6309,4205.5479,4117.0796,3727.3767,121847.2656,138013.5469,158009.3438,103163.8672,3939.8972,3627.4197,4550.8374,3779.7246,103616.3828,90600.0234,110235.1094,116320.0391,3924.1616,2931.6101,3728.0696,55750.7031,93707.8984,141741.5938,218.423157
2162.7771,1746.6993,3345.1619,3653.3030,121796.5078,138287.5781,158002.7813,104254.5859,3669.0164,3626.1011,3603.8386,3948.4578,103501.5625,90898.3750,110100.7969,117444.0156,3931.9624,3862.3142,3897.3840,55494.6875,94384.5703,141568.8594,218.427155
-2461.1953,-2550.5352,800.7736,3579.3188,121750.9766,138539.4219,157993.5469,105274.8359,3356.6731,3626.5928,827.8862,4089.7878,103386.4453,91173.1172,109981.9531,118540.7734,3901.0276,4451.5732,4046.1797,55224.8555,94964.0234,141400.8906,218.431152
-1080.8409,-1066.8711,1865.6777,3605.9397,121757.0078,138446.8125,157988.4688,104911.3750,3483.4299,3636.0476,2121.7393,4028.6560,103408.0859,91076.6016,110025.7188,118226.2656,3871.0762,4219.0928,3987.2158,55284.6016,94698.1016,141452.8594,218.435150
3748.0298,3416.6204,3838.4426,3692.0386,121811.5469,138114.7500,157993.1406,103602.7031,3841.3706,3622.5471,4231.8779,3832.4524,103546.6641,90714.9766,110175.8984,116841.3906,3890.1868,3452.0256,3790.1404,55609.2148,93923.2813,141663.1875,218.439148
4733.3618,4201.3008,4114.1289,3726.0356,121839.6484,138007.0156,158003.3438,103154.2109,3938.0867,3623.0835,4547.1719,3778.2939,103609.7422,90592.8438,110227.6719,116310.6250,3922.2617,3009.5728,3727.1309,55745.8086,93699.6484,141736.2500,218.443146
2215.7507,1781.9481,3368.2959,3659.4275,121795.3438,138285.1719,158002.1094,104247.1484,3675.2749,3640.3838,3606.0515,3952.7046,103499.5234,90894.5469,110098.0469,117436.7109,3929.5706,3879.2122,3894.8809,55488.3828,94371.5625,141560.3281,218.447144
-2412.3342,-2502.0764,854.4848,3581.7776,121746.7266,138535.2344,157990.9688,105268.1953,3401.3542,3627.2634,843.4654,4091.8220,103382.7578,91168.7188,109976.7734,118532.7266,3905.0955,4456.1553,4050.2253,55223.5156,94958.7266,141397.3750,218.451141
-1134.5074,-1123.5551,1874.3278,3608.3313,121752.9844,138445.1875,157986.3281,104910.0547,3513.8281,3635.9583,2082.2437,4031.9417,103404.8203,91074.3281,110021.3203,118224.0078,3874.6523,4225.6196,3991.9990,55282.4570,94696.1563,141449.3906,218.455139
3711.5293,3367.6030,3853.1501,3700.6665,121813.4063,138117.5469,157995.7813,103606.5000,3847.9421,3640.3167,4235.2085,3841.1919,103547.3828,90716.8516,110175.8125,116845.9297,3890.4551,3477.1267,3792.1521,55604.4531,93918.8281,141657.3750,218.459137
4728.5562,4200.9878,4107.7588,3721.2300,121829.0938,137996.1094,157994.5469,103141.8516,3933.3257,3616.3110,4541.0698,3774.0024,103600.2891,90582.7422,110216.4922,116297.4219,3921.0547,3081.1431,3725.9016,55740.0625,93690.7734,141729.5469,218.463135
2158.4856,1752.2426,3293.0154,3652.2974,121783.0703,138272.9844,157991.7344,104230.2266,3670.2456,3627.8667,3561.5491,3945.8875,103489.6250,90882.9297,110086.8516,117419.3203,3927.4026,3882.9226,3892.6233,55483.7109,94361.5547,141555.2656,218.467133
-1148.4103,-1109.9875,1912.3705,3600.2625,121739.2422,138432.2656,157974.2344,104899.1953,3487.8779,3627.1292,2113.6255,4025.7278,103391.4766,91062.0078,110006.2109,118212.3359,3869.2656,4223.6079,3987.7747,55271.2344,94685.2500,141436.3750,218.471130
3692.7092,3367.9160,3840.4319,3688.7976,121796.1250,138102.8594,157980.6875,103593.5391,3838.2861,3623.7095,4220.5903,3831.6030,103531.4922,90702.4141,110158.2656,116832.0938,3884.6882,3389.3960,3787.5923,55592.6523,93907.8984,141643.8750,218.475128
4733.5181,4208.8779,4112.8550,3727.5779,121828.9375,137996.2656,157994.8125,103138.6797,3943.1604,3635.2429,4545.8755,3779.7021,103599.3047,90581.0703,110215.0156,116294.9609,3917.2549,2939.6790,3723.3311,55733.0430,93679.6641,141720.6563,218.479126
-2440.1621,-2509.4749,806.3839,3575.5413,121728.8047,138517.6406,157975.9844,105246.0234,3398.3145,3621.8096,805.9592,4086.5693,103366.3750,91150.8594,109957.8125,118508.7422,3899.2170,4451.3496,4045.1963,55209.8125,94938.0000,141380.2344,218.483124
-1171.0973,-1081.7350,1813.8887,3607.2585,121740.0938,138434.6094,157976.1406,104901.8516,3509.5366,3641.4119,1964.5394,4033.6179,103391.7266,91063.3750,110005.8281,118215.1563,3869.8467,4226.9160,3989.2722,55267.8594,94682.0781,141432.0625,218.487122
3675.8784,3360.5623,3843.8293,3692.9104,121794.1406,138102.1094,157980.2031,103594.5391,3840.2754,3631.2195,4213.0576,3837.1016,103528.9844,90701.4766,110154.7813,116832.7422,3886.7446,3481.3064,3790.4980,55589.5000,93905.2891,141639.6094,218.491119
4722.0068,4202.1504,4101.1201,3716.9385,121812.8438,137980.7188,157981.3594,103122.0078,3931.0681,3611.9299,4534.2524,3770.4709,103585.0859,90566.4922,110198.9219,116275.5781,3917.5007,3096.1189,3723.2192,55727.7695,93670.8594,141713.1094,218.495117
2182.5137,1833.3571,3294.9153,3654.7336,121773.2188,138261.5781,157984.0000,104209.5078,3673.3525,3635.3323,3560.3645,3947.2061,103480.4844,90870.2969,110075.6563,117397.2344,3925.1897,3885.5154,3890.2092,55474.9492,94340.3828,141542.4219,218.499115
-2447.7395,-2512.1125,776.3655,3578.4917,121725.7188,138514.4219,157973.4219,105240.4609,3401.8013,3631.3313,785.6191,4089.1174,103363.0703,91147.1250,109953.7734,118503.5391,3896.8923,4449.3604,4043.1399,55204.0234,94928.8359,141373.6563,218.503113
3681.0193,3365.3679,3834.4192,3691.0776,121786.8281,138096.6563,157974.4844,103590.7891,3838.5991,3629.9009,4212.8564,3836.0957,103522.2578,90695.9766,110146.7578,116828.5859,3885.5825,3445.4990,3790.3862,55582.9297,93899.6563,141632.5625,218.507111
4726.0078,4204.5640,4104.1826,3721.2078,121811.5469,137978.8594,157980.8906,103118.7656,3936.0081,3623.1506,4537.8735,3774.4272,103583.7500,90564.6641,110196.5313,116272.2969,3917.7690,3009.8857,3723.7559,55723.6133,93663.9531,141708.4531,218.511108
2223.3950,1829.0656,3321.9163,3647.5811,121760.6953,138248.5313,157973.6719,104193.7031,3666.1553,3621.0496,3583.9680,3940.0537,103469.7734,90858.0703,110063.1563,117378.7500,3925.2568,3886.0295,3890.0527,55470.0547,94330.2344,141535.6875,218.515106
-2424.4712,-2500.1990,729.8068,3577.3518,121719.1719,138508.2500,157968.5781,105232.8828,3381.7742,3629.4092,746.1906,4088.0444,103357.1016,91140.5078,109946.2344,118493.6797,3897.9429,4451.0366,4044.2351,55199.8867,94921.7734,141367.9688,218.519104
-1124.4939,-1063.3618,1736.5293,3600.6870,121722.0781,138419.5625,157961.4688,104890.9922,3504.9321,3633.8123,1925.8038,4028.4771,103374.9375,91048.8438,109985.8438,118201.8125,3867.0752,4230.4028,3988.5122,55253.9805,94669.9609,141416.7813,218.523102
3678.4265,3368.8994,3816.1355,3684.4167,121774.3984,138086.2344,157964.2656,103582.9844,3831.2676,3618.3225,4189.7896,3830.7090,103511.0625,90686.1875,110133.9922,116819.3984,3883.4143,3469.1919,3789.5369,55575.4219,93893.5313,141624.5781,218.527100
4725.4492,4207.1348,4102.5508,3720.5818,121804.8906,137972.8594,157975.7813,103110.5859,3934.5552,3620.1108,4536.2642,3773.7791,103577.7813,90558.0234,110189.5391,116263.0000,3916.8301,2965.6741,3724.0017,55719.2070,93655.7969,141702.4375,218.531097
2271.4736,1893.9973,3340.5576,3654.7559,121761.4375,138248.1875,157975.0000,104189.2578,3675.0513,3633.8572,3601.6035,3946.6475,103469.7734,90856.3281,110062.0234,117373.2734,3926.6201,3848.8137,3891.8408,55468.3984,94322.4375,141531.6719,218.535095
-2405.0251,-2480.0601,769.9952,3576.2344,121712.1719,138501.7031,157963.2188,105224.7188,3405.0869,3623.8882,782.9146,4088.0444,103351.3125,91134.0234,109938.7031,118483.6875,3900.3569,4454.1885,4047.2078,55198.4375,94917.1250,141364.4531,218.539093
-1284.3535,-1226.3284,1749.6945,3602.4529,121719.1250,138418.6250,157960.0156,104890.8516,3513.1577,3634.8628,1968.7639,4032.8804,103372.5234,91047.4609,109982.0469,118200.6719,3870.8972,4237.1978,3993.5413,55253.2852,94669.6016,141414.5938,218.543091
3612.5559,3314.2271,3812.2017,3689.5129,121774.0391,138087.0156,157964.6406,103585.3359,3835.6487,3630.9514,4197.7021,3837.5486,103509.8516,90686.2734,110131.6484,116821.8359,3883.8167,3489.7332,3791.2134,55571.1953,93889.9297,141618.7656,218.547089
4720.4424,4202.1504,4099.3320,3718.3914,121797.1328,137965.4375,157969.6250,103101.4375,3933.2588,3614.7910,4533.5596,3772.3262,103571.2266,90550.8438,110181.5547,116252.6016,3918.1489,3074.7952,3725.1863,55716.8398,93650.4766,141698.9063,218.551086
2186.2017,1803.4058,3348.6936,3653.0796,121754.2813,138241.2500,157969.4531,104177.7422,3673.2410,3630.0349,3614.8135,3945.1499,103464.7031,90849.4453,110055.8984,117361.1641,3926.9556,3875.0994,3891.6843,55466.0078,94314.7500,141528.6094,218.555084
-2441.0786,-2508.5139,771.2916,3578.8271,121709.1094,138498.4219,157961.1563,105219.8906,3376.6555,3633.9019,794.1575,4090.8831,103348.3594,91130.2734,109934.5938,118478.4375,3898.5464,4452.6016,4045.5090,55192.3320,94907.5859,141357.0313,218.559082
-1232.8551,-1183.2343,1740.4409,3596.4626,121707.2969,138408.1875,157950.2344,104882.8516,3498.2043,3626.8611,1957.5433,4027.8066,103361.7266,91037.4922,109969.6641,118191.0547,3868.3716,4237.1978,3991.7756,55244.1680,94661.0000,141404.2656,218.563080
3633.0300,3328.2639,3810.5029,3688.5742,121767.2500,138082.3281,157959.7344,103582.4297,3833.6594,3627.4644,4193.4106,3837.0791,103503.6406,90681.1797,110124.6016,116818.1719,3883.1013,3420.2190,3792.8450,55565.2266,93884.7656,141612.4375,218.567078
4727.3716,4210.1743,4105.1885,3725.2756,121797.8672,137965.9375,157971.0313,103100.4375,3938.1985,3629.5208,4539.9966,3778.2493,103571.2266,90550.1328,110180.8672,116251.7734,3916.2490,2941.2883,3725.1191,55711.1172,93641.6250,141692.5781,218.571075
4727.3716,4210.1743,4105.1885,3725.2756,121797.8672,137965.9375,157971.0313,103100.4375,3938.1985,3629.5208,4539.9966,3778.2493,103571.2266,90550.1328,110180.8672,116251.7734,3916.2490,2941.2883,3725.1191,55711.1172,93641.6250,141692.5781,218.575073
2248.6748,1860.6262,3336.8025,3645.9941,121733.5391,138220.3906,157954.2969,104157.2031,3665.7529,3621.2507,3580.0342,3937.5278,103452.9922,90836.1016,110042.7266,117339.9297,3918.2830,3845.7964,3882.2966,55459.0586,94302.6797,141521.2031,218.579071
-2418.9280,-2494.4321,657.0071,3562.0632,121654.0625,138449.3125,157926.0469,105183.4375,3262.3264,3616.0203,580.8547,4077.4722,103327.8438,91110.6250,109913.3359,118443.4297,3870.8079,4430.2720,4014.9766,55184.7109,94898.4219,141350.3281,218.583069
-1311.0862,-1246.5121,1672.0892,3588.4607,121655.0859,138364.5156,157920.8750,104857.8438,3374.0627,3631.5325,1834.5194,4025.1243,103347.4453,91026.3594,109955.0703,118168.6172,3839.1130,4216.6787,3960.0361,55236.9492,94655.7422,141397.2656,218.587067
3591.6570,3301.7771,3803.8198,3673.1960,121704.7734,138029.6406,157922.0938,103549.7266,3816.1355,3615.5957,4178.7480,3825.9033,103482.0000,90662.9609,110101.3125,116786.6953,3856.2122,3446.7283,3762.3796,55558.6328,93880.8125,141606.0469,218.591064
4720.1963,4204.1616,4095.8230,3706.5674,121731.1250,137908.7813,157929.7969,103058.3281,3922.9099,3611.9524,4522.6743,3762.6030,103546.9531,90527.0625,110155.1797,116210.4922,3887.5046,2955.9287,3692.0386,55704.3672,93632.7031,141685.3125,218.595062
2213.6943,1839.3696,3370.7771,3642.8425,121688.9922,138183.4375,157930.1406,104129.2422,3663.2048,3629.9009,3619.5967,3935.4045,103441.3906,90824.3672,110030.8203,117313.7500,3894.9255,3832.0947,3856.0781,55454.0938,94292.8203,141515.2188,218.599060
-2418.9504,-2482.5410,807.2109,3560.6328,121635.5703,138435.3438,157915.1563,105170.2969,3351.3757,3612.8464,751.0410,4075.1475,103318.8984,91101.3281,109902.9844,118429.1484,3868.0586,4428.3052,4012.3169,55180.6211,94891.2188,141344.7656,218.603058
-2418.9504,-2482.5410,807.2109,3560.6328,121635.5703,138435.3438,157915.1563,105170.2969,3351.3757,3612.8464,751.0410,4075.1475,103318.8984,91101.3281,109902.9844,118429.1484,3868.0586,4428.3052,4012.3169,55180.6211,94891.2188,141344.7656,218.607056
-1258.0455,-1202.8368,1737.9822,3582.7834,121637.7188,138352.3594,157908.5000,104846.7969,3457.6807,3617.2720,1893.1479,4018.0835,103335.0859,91014.9141,109941.1641,118156.4766,3837.1909,4217.0142,3959.7007,55229.6602,94649.2188,141389.8438,218.611053
3609.4490,3309.8687,3807.1277,3678.8511,121700.6406,138029.9531,157921.1094,103550.8672,3821.0083,3630.1689,4179.2622,3831.0664,103479.3828,90661.6484,110098.5234,116788.8203,3851.6301,3373.0122,3760.7703,55549.5352,93872.3594,141596.6250,218.615051
4720.5542,4205.5698,4094.9736,3706.9026,121722.3203,137902.2188,157924.5469,103050.6094,3921.9263,3613.3159,4522.8975,3762.1113,103540.6719,90520.1328,110147.8047,116201.5938,3886.0742,2932.2805,3692.5305,55697.7070,93622.6484,141677.3594,218.619049
2257.2131,1879.7816,3326.0735,3635.8464,121673.0391,138169.6250,157918.5625,104111.7813,3654.6665,3612.8464,3571.4509,3927.1121,103429.6953,90810.7969,110017.3828,117293.5469,3896.0430,3843.4941,3857.3074,55449.2891,94281.8438,141508.6250,218.623047
-2412.4014,-2483.0776,678.8001,3567.8076,121633.6953,138435.9219,157916.1719,105168.3516,3314.2495,3625.5869,625.9159,4080.6685,103318.4297,91100.0078,109901.8047,118426.5547,3869.5115,4429.4673,4014.2837,55176.1523,94882.8359,141338.5625,218.627045
-1271.7249,-1214.8173,1684.9415,3585.5774,121631.9063,138349.4531,157905.8594,104845.6797,3402.4719,3622.6365,1848.5116,4020.5869,103331.2188,91011.6719,109936.0000,118154.8281,3838.1074,4220.1880,3961.8467,55223.9844,94643.6328,141383.2969,218.631042
3594.1604,3299.0950,3797.6284,3668.7930,121682.8672,138015.7813,157907.8281,103538.8438,3811.2852,3609.7173,4170.5225,3822.2153,103466.1563,90649.0859,110083.0547,116775.3672,3853.5300,3429.9421,3762.8938,55544.0391,93867.2188,141590.6250,218.635040
4720.4873,4206.7100,4093.0066,3707.3496,121714.8750,137896.9844,157919.9375,103043.2344,3923.3792,3616.7803,4522.5850,3762.2903,103535.5781,90514.4609,110141.7500,116194.5547,3885.5825,2901.8821,3691.4575,55691.9180,93613.8203,141671.1250,218.639038
2287.9468,1915.6338,3341.0940,3640.2720,121669.2109,138166.5000,157917.0156,104104.8984,3662.4226,3623.6199,3590.1594,3930.7554,103427.6875,90807.2422,110014.4531,117286.8203,3895.6406,3834.2405,3856.9722,55444.8203,94271.9453,141502.7656,218.643036
-2383.7017,-2454.0203,714.7864,3558.1516,121615.9688,138420.4375,157902.2344,105151.3672,3365.2339,3607.6609,671.2899,4071.7725,103304.6172,91085.3203,109886.0859,118407.3125,3867.9246,4427.5229,4013.1216,55169.2461,94872.3359,141329.5781,218.647034
-1221.4333,-1179.4121,1581.7659,3583.3198,121621.0703,138342.1406,157898.0313,104839.6016,3465.0120,3619.9319,1763.0608,4019.0894,103322.1172,91003.5781,109925.4531,118147.0469,3836.3638,4220.5679,3961.2654,55215.9375,94635.4688,141372.9688,218.651031
3605.4255,3307.5886,3771.3428,3669.1057,121674.5781,138010.5469,157902.0156,103535.7813,3811.0840,3615.6182,4145.9580,3823.2209,103458.3516,90642.9844,110074.2266,116771.6328,3849.7749,3452.9197,3760.4573,55533.8242,93857.5391,141578.5156,218.655029
4712.7310,4197.5010,4084.2893,3699.6160,121699.0938,137883.2813,157907.7813,103027.8359,3917.5007,3601.7600,4514.3145,3754.7129,103523.1953,90501.4688,110127.8047,116177.0781,3884.7107,2979.3311,3690.9658,55686.1055,93604.2109,141663.7188,218.659027
2330.4375,1919.2548,3322.0056,3639.1096,121660.4531,138159.1250,157911.2969,104093.2969,3658.2429,3620.0437,3576.6367,3929.0566,103421.8047,90799.7344,110007.4844,117273.9219,3896.7805,3835.2463,3858.0898,55442.0039,94263.1797,141498.4688,218.663025
-2366.1108,-2448.6111,693.3734,3561.8621,121614.3359,138420.0313,157902.9063,105149.2188,3350.1465,3618.8145,661.2987,4077.0920,103304.3516,91084.5391,109884.9922,118404.7422,3870.2937,4429.6685,4015.9824,55166.8750,94866.5234,141326.1875,218.667023
-1272.3507,-1205.5859,1638.8075,3579.8330,121611.0781,138335.0156,157891.4844,104833.8828,3465.0791,3612.8018,1808.3231,4017.1895,103314.9922,90997.2344,109916.7578,118140.0313,3839.4707,4225.4629,3965.5569,55212.3594,94631.4688,141368.2500,218.671021
3591.2324,3304.7947,3784.1055,3673.6431,121671.5156,138010.9688,157902.2188,103537.5469,3815.6438,3619.0378,4156.7090,3828.1831,103457.5703,90643.1797,110072.3438,116772.8594,3856.2122,3443.7778,3768.3027,55533.1992,93856.8516,141576.6563,218.675018
4721.5376,4209.3027,4092.8948,3709.7637,121701.0625,137886.3906,157912.0938,103029.3750,3925.0110,3616.1545,4524.0825,3763.6089,103526.3281,90503.9766,110130.1250,116178.6641,3890.9021,2866.1418,3697.4924,55686.1953,93600.5625,141662.4063,218.679016
2316.1770,1946.3899,3345.1843,3637.5898,121650.6172,138149.7188,157904.5938,104080.2031,3659.7852,3613.3159,3585.1079,3925.9944,103415.0547,90790.9531,109999.1406,117259.1719,3899.4629,3815.3086,3860.7495,55439.9023,94254.7969,141495.0938,218.683014
-2369.8213,-2440.3857,665.7020,3564.9019,121607.7422,138415.4375,157899.2188,105142.0000,3319.6362,3619.1050,620.4620,4077.8745,103300.2813,91079.5078,109879.6094,118396.3359,3873.0879,4431.5684,4019.2234,55165.2422,94861.2656,141323.7656,218.687012
-1248.2555,-1207.6870,1546.0254,3588.1255,121611.2813,138337.9531,157894.0313,104837.7891,3451.4221,3628.3586,1757.0259,4025.2808,103316.1094,90999.5391,109917.0703,118144.2109,3842.8013,4230.5371,3970.0720,55210.8633,94630.4219,141366.5938,218.691010
-1248.2555,-1207.6870,1546.0254,3588.1255,121611.2813,138337.9531,157894.0313,104837.7891,3451.4221,3628.3586,1757.0259,4025.2808,103316.1094,90999.5391,109917.0703,118144.2109,3842.8013,4230.5371,3970.0720,55210.8633,94630.4219,141366.5938,218.695007
3596.6414,3303.3865,3759.5410,3672.8833,121662.8672,138005.5938,157896.9219,103533.1406,3815.0627,3614.6345,4142.5605,3828.3621,103451.3125,90638.1328,110064.7500,116767.8125,3858.6487,3461.7935,3772.2590,55530.2695,93853.8125,141572.6875,218.699005
4722.2754,4208.2520,4091.1960,3709.5178,121692.5469,137880.3594,157906.6719,103020.4844,3927.1343,3613.5840,4523.1885,3763.2737,103520.0234,90497.2500,110122.5703,116168.4922,3890.5444,2934.4041,3699.1689,55682.1484,93592.2266,141655.8281,218.703003
4722.2754,4208.2520,4091.1960,3709.5178,121692.5469,137880.3594,157906.6719,103020.4844,3927.1343,3613.5840,4523.1885,3763.2737,103520.0234,90497.2500,110122.5703,116168.4922,3890.5444,2934.4041,3699.1689,55682.1484,93592.2266,141655.8281,218.707001
2386.5850,1981.6609,3348.8723,3644.7424,121649.1172,138149.0000,157905.2500,104074.7891,3668.8823,3626.5481,3606.7668,3931.9399,103414.6563,90789.2734,109997.9375,117253.7344,3899.7981,3815.0181,3862.0684,55436.9063,94245.1641,141489.3750,218.710999
-2333.1196,-2413.7202,701.9118,3563.9631,121598.1328,138407.3906,157892.6875,105131.5625,3364.4961,3613.4946,685.9974,4076.3545,103293.5313,91072.1563,109871.2734,118384.8672,3874.3171,4432.0825,4020.8105,55161.9336,94853.5547,141318.3438,218.714996
-2333.1196,-2413.7202,701.9118,3563.9631,121598.1328,138407.3906,157892.6875,105131.5625,3364.4961,3613.4946,685.9974,4076.3545,103293.5313,91072.1563,109871.2734,118384.8672,3874.3171,4432.0825,4020.8105,55161.9336,94853.5547,141318.3438,218.718994
-1390.5243,-1335.7626,1602.7095,3590.5393,121605.8672,138335.9688,157891.7813,104836.2500,3468.9011,3627.2634,1801.0812,4028.5217,103313.0859,90997.5000,109912.8672,118142.1094,3846.6904,4236.1025,3975.0342,55209.0508,94628.3672,141363.4688,218.722992
3518.8350,3226.8096,3777.7354,3682.5391,121664.7188,138009.9688,157900.9688,103539.1563,3823.0198,3633.1194,4158.6089,3838.2637,103453.8594,90642.1797,110066.6016,116775.0078,3861.9343,3482.1111,3776.7517,55527.9219,93852.1563,141570.2031,218.726990
3518.8350,3226.8096,3777.7354,3682.5391,121664.7188,138009.9688,157900.9688,103539.1563,3823.0198,3633.1194,4158.6089,3838.2637,103453.8594,90642.1797,110066.6016,116775.0078,3861.9343,3482.1111,3776.7517,55527.9219,93852.1563,141570.2031,218.730988
4721.3140,4210.0405,4091.0842,3709.9871,121685.9297,137874.8594,157902.8594,103013.2891,3927.8718,3611.6172,4524.4175,3763.6089,103516.3750,90492.6641,110117.5625,116160.9609,3895.1489,2999.2463,3703.3040,55681.4805,93587.9141,141655.0625,218.734985
2268.0537,1893.5503,3292.7917,3645.0554,121642.6172,138143.9688,157901.5313,104065.3828,3671.0056,3624.1340,3583.7668,3931.6494,103411.0781,90784.0859,109993.4922,117243.7656,3903.5308,3831.1113,3865.1753,55435.8125,94238.5078,141487.5000,218.738983
2268.0537,1893.5503,3292.7917,3645.0554,121642.6172,138143.9688,157901.5313,104065.3828,3671.0056,3624.1340,3583.7668,3931.6494,103411.0781,90784.0859,109993.4922,117243.7656,3903.5308,3831.1113,3865.1753,55435.8125,94238.5078,141487.5000,218.742981
-2414.8154,-2490.4536,646.5689,3569.5288,121596.6797,138407.1094,157893.1250,105129.0313,3335.9753,3630.0349,668.2948,4081.4060,103292.6563,91070.7969,109870.0625,118382.7891,3873.5796,4430.8086,4020.4304,55155.8555,94843.8828,141311.2344,218.746979
-1355.6780,-1287.6169,1609.5491,3583.4539,121591.6953,138323.9375,157880.8438,104825.5234,3452.8525,3619.5967,1813.4193,4022.4421,103301.4922,90986.4609,109899.6328,118130.3984,3843.6506,4234.4932,3972.8884,55199.8008,94618.3516,141353.4531,218.751953
3535.9116,3258.4819,3766.4924,3674.0454,121648.8750,137997.7656,157888.6094,103528.0234,3815.0181,3618.3225,4147.8799,3830.9995,103440.7656,90630.1484,110052.2969,116763.0703,3857.9780,3395.9897,3774.3601,55518.5781,93842.8828,141559.8906,218.755951
4723.2139,4212.3872,4092.2019,3712.8257,121680.4531,137871.0469,157899.4375,103007.0938,3929.6377,3622.3013,4526.6973,3765.7993,103511.3516,90487.4375,110112.2188,116155.4375,3888.6223,2868.4663,3698.8335,55671.6875,93574.5469,141643.7656,218.759949
2315.0596,1946.6581,3352.3816,3640.8979,121630.1641,138131.8281,157891.8906,104049.1328,3668.2117,3617.6968,3618.4790,3926.7991,103401.2188,90772.1719,109982.0703,117226.1094,3900.4688,3822.0142,3862.5378,55429.1484,94225.1797,141478.8906,218.763947
2315.0596,1946.6581,3352.3816,3640.8979,121630.1641,138131.8281,157891.8906,104049.1328,3668.2117,3617.6968,3618.4790,3926.7991,103401.2188,90772.1719,109982.0703,117226.1094,3900.4688,3822.0142,3862.5378,55429.1484,94225.1797,141478.8906,218.767944
-2382.1147,-2449.2146,645.5407,3567.5618,121586.3125,138398.9844,157885.9375,105118.2578,3345.8550,3618.7249,647.0159,4079.3943,103285.7969,91062.8594,109861.5703,118370.2734,3876.8652,4433.3564,4023.7610,55154.4688,94838.2891,141307.9844,218.771942
-1419.2240,-1351.7887,1530.2675,3594.9426,121594.8516,138330.1563,157885.6719,104832.0469,3428.1763,3638.2380,1722.2913,4034.1099,103304.6172,90990.6875,109902.5859,118137.5938,3846.6011,4239.3657,3976.6433,55197.0273,94615.2422,141349.0313,218.775940
3497.7349,3214.3596,3775.7683,3678.9404,121646.3672,137997.6563,157888.6719,103529.6094,3818.3037,3625.9221,4156.8657,3837.1016,103439.6484,90630.1953,110050.0391,116764.3906,3863.3647,3498.5173,3780.1492,55517.0820,93841.3594,141557.2656,218.779938
4716.8213,4206.6650,4085.3848,3706.6343,121667.4219,137859.9844,157889.9531,102994.4688,3925.9944,3607.9739,4520.6626,3760.4126,103502.1172,90477.4688,110101.2031,116141.3125,3892.8020,3045.7827,3701.7839,55669.0508,93568.3750,141639.7344,218.783936
-2396.0623,-2469.2866,684.8351,3564.9243,121576.3672,138389.8438,157878.2969,105107.2422,3379.6506,3620.5579,721.8049,4076.2651,103276.5859,91053.0234,109851.2891,118357.9375,3872.6631,4428.8413,4019.6482,55143.9648,94823.4063,141294.6719,218.787933
3517.0916,3247.7754,3770.3591,3676.2583,121636.2422,137990.9219,157881.1875,103524.8047,3815.7332,3626.1011,4146.4722,3835.1792,103430.2813,90622.4141,110039.7344,116758.9844,3858.1792,3411.5020,3776.8188,55505.5039,93830.5625,141544.1875,218.791931
2336.8748,1998.4470,3339.8423,3639.6462,121614.2734,138117.8594,157881.2344,104026.8906,3666.6694,3613.9194,3610.9241,3924.2510,103389.6406,90757.2656,109968.3203,117201.7891,3902.2344,3837.7051,3863.4766,55421.5078,94205.8750,141468.2969,218.795929
-2369.1060,-2423.1301,653.3862,3569.1040,121573.7734,138389.1406,157878.4063,105104.4922,3368.0278,3623.9553,670.7758,4081.1379,103276.3203,91051.9766,109849.8125,118354.5625,3878.1616,4433.8262,4025.4150,55145.7539,94822.3125,141296.5625,218.799927
-1411.2667,-1304.8278,1518.8680,3589.7124,121575.5156,138316.2344,157872.4219,104820.9844,3476.2773,3629.4761,1708.0532,4031.1145,103289.3750,90977.1641,109884.2109,118123.9609,3848.3220,4244.9761,3980.2419,55186.6328,94604.8281,141336.6250,218.803925
3495.9468,3236.1526,3756.5459,3671.2515,121624.0391,137981.7813,157872.3594,103517.4063,3811.5981,3614.1875,4135.5864,3831.4241,103420.8281,90613.9688,110028.5625,116750.2656,3860.8613,3484.0334,3779.6353,55501.4570,93826.4531,141538.8125,218.807922
2359.4053,2038.8143,3357.0979,3646.2622,121613.1563,138116.7656,157882.0313,104021.9297,3676.1689,3625.7656,3625.5422,3929.9282,103389.3125,90755.2969,109967.0000,117196.0938,3904.8049,3799.8635,3865.4658,55419.3594,94197.2656,141463.3438,218.811920
-2349.0564,-2399.3926,670.4629,3561.7280,121558.6875,138375.3906,157866.2500,105088.9141,3384.8586,3611.3489,693.0158,4073.3372,103263.9141,91038.8281,109835.6641,118337.1484,3875.2559,4430.4287,4022.4868,55137.9727,94810.8203,141287.0313,218.815918
-1399.0851,-1345.1503,1442.8944,3583.4985,121562.4375,138305.9531,157861.9688,104811.6641,3475.0256,3622.3235,1710.7802,4025.3701,103278.0391,90966.7266,109871.5391,118113.7422,3843.9858,4242.4282,3976.5986,55176.8672,94595.0859,141325.9375,218.819916
3510.2966,3237.9182,3731.1765,3675.7666,121621.6250,137981.6563,157872.0156,103518.5000,3815.3086,3624.9612,4132.0776,3836.4534,103418.8828,90613.2734,110025.6797,116751.6094,3861.3308,3502.5405,3781.4456,55497.3438,93822.8750,141534.9063,218.823914
2354.0857,1986.0195,3368.4524,3643.8484,121603.5234,138108.1875,157875.0156,104009.1016,3672.4585,3621.7424,3620.8484,3927.0449,103381.4219,90746.0469,109958.1484,117181.6797,3903.5532,3825.8586,3864.1470,55413.7266,94185.5781,141455.8906,218.827911
-2335.6230,-2400.2644,691.4288,3567.2937,121559.0859,138376.6094,157868.6406,105087.9063,3363.9597,3625.4529,693.3734,4080.6460,103264.4766,91038.6953,109835.4375,118335.1406,3878.4746,4433.0659,4025.9736,55135.7148,94804.1172,141282.4063,218.831909
-1418.4640,-1344.3904,1510.3521,3581.5986,121554.1016,138300.3594,157856.9531,104807.6406,3470.3987,3618.0320,1736.2164,4025.2361,103271.7813,90961.3359,109863.6953,118108.3359,3846.8022,4247.2334,3980.6221,55173.1797,94591.1484,141320.8594,218.835907
3482.5359,3215.2537,3747.0686,3674.8279,121613.4219,137977.0938,157867.0781,103515.7500,3813.6768,3621.1836,4131.3623,3836.2522,103412.7969,90608.4688,110018.3906,116748.3906,3861.9119,3497.3325,3784.3513,55492.3828,93818.7422,141529.3125,218.839905
4724.3315,4215.4048,4089.7209,3713.8315,121645.5859,137843.7188,157877.8594,102970.9766,3932.2305,3620.2224,4528.8433,3766.7158,103486.0703,90459.1641,110080.9531,116115.2734,3896.6018,2932.9512,3707.1709,55653.6719,93538.9609,141619.6250,218.843903
2374.0010,2009.3994,3354.6167,3640.9202,121594.0234,138099.3594,157868.2344,103996.2266,3673.3525,3615.8862,3640.8755,3923.8933,103375.2969,90737.9063,109950.6875,117168.4922,3904.3801,3792.3757,3864.7729,55411.0664,94177.1484,141452.5781,218.847900
-2356.7456,-2425.3206,589.5049,3567.8523,121550.7500,138370.2344,157862.8281,105078.9688,3316.9541,3622.0330,649.3405,4079.4390,103258.6641,91032.0547,109828.7109,118325.7969,3878.6086,4432.7529,4026.2644,55131.2461,94796.0469,141276.6094,218.851898
3490.0237,3227.8823,3722.0347,3671.1846,121603.3438,137969.6250,157859.7969,103510.4531,3810.4358,3617.0486,4124.1426,3834.0393,103404.6406,90601.3594,110008.6875,116742.2891,3862.3142,3511.3472,3785.2007,55486.3242,93813.0859,141522.2500,218.855896
4718.7886,4209.5933,4085.0271,3710.1213,121635.0391,137835.2188,157869.9219,102960.7109,3932.4316,3615.7969,4525.0659,3763.3408,103477.8906,90450.6484,110071.5156,116104.4531,3894.7466,3031.9917,3706.0085,55647.2148,93529.2188,141611.8438,218.859894
2407.5957,2038.7697,3401.9578,3652.0962,121597.1953,138102.5469,157872.7344,103994.7500,3685.3333,3635.6453,3653.3479,3933.3257,103379.0078,90739.8984,109953.7891,117167.4141,3906.6155,3819.7341,3867.4998,55410.4180,94170.0859,141450.4688,218.863892
-2303.2131,-2366.4014,707.7233,3565.7737,121541.1406,138361.7813,157855.9688,105068.7969,3380.7236,3616.8027,713.2218,4077.0027,103251.8203,91024.2578,109820.2422,118314.5078,3879.1003,4432.7754,4027.0913,55127.9844,94789.3438,141272.8281,218.867889
-1488.9614,-1420.8109,1466.2968,3583.7891,121542.0078,138293.6406,157849.5313,104803.1016,3464.8108,3622.7258,1706.1533,4028.8794,103262.3281,90953.7188,109852.2500,118102.6797,3847.1821,4251.6592,3982.9465,55162.1602,94580.1328,141307.4063,218.871887
3434.1890,3162.1460,3740.6538,3677.0854,121601.7344,137970.6250,157860.0000,103512.6250,3815.5544,3631.8008,4130.2891,3840.5659,103403.0313,90601.0234,110006.6094,116744.9453,3860.3696,3528.4685,3784.9548,55478.7695,93805.5547,141513.0938,218.875885
4716.1733,4208.3638,4081.2273,3706.3215,121624.3516,137825.5156,157861.9844,102950.2969,3928.3413,3610.2759,4521.9365,3759.9209,103469.1016,90441.1641,110061.2813,116092.2734,3894.0762,3115.2073,3705.3157,55641.0664,93519.8281,141604.3125,218.879883
2365.4626,1998.3800,3306.7839,3643.1777,121582.1328,138088.7969,157860.8594,103977.7656,3678.1582,3620.1777,3605.6938,3924.6086,103366.9375,90726.1719,109940.1563,117147.8125,3904.6709,3828.0491,3865.2424,55404.0508,94158.5781,141442.7344,218.883881
-2369.9331,-2443.7385,538.4088,3572.3450,121541.3203,138363.2188,157857.5781,105067.8125,3329.9404,3633.7900,611.0073,4083.3506,103252.0703,91023.7656,109819.9063,118313.0547,3878.0945,4431.4121,4026.2866,55122.6406,94780.4219,141266.0625,218.887878
-1498.1033,-1417.3688,1442.3804,3578.9836,121530.6797,138284.4063,157840.7031,104795.6563,3395.1404,3620.3120,1686.1932,4025.2808,103252.4688,90944.4844,109840.8906,118094.3906,3842.2200,4248.5972,3978.9902,55152.1445,94570.4766,141297.2031,218.891876
3420.5544,3161.5200,3724.7839,3661.5286,121580.2109,137952.2969,157842.0000,103497.1797,3800.8247,3608.1526,4114.7773,3827.1104,103384.5469,90583.8359,109986.2266,116727.7578,3854.6028,3481.0381,3779.7468,55465.9414,93793.9766,141499.8125,218.895874
4718.3413,4210.6885,4082.4565,3708.6238,121619.4375,137822.0313,157858.8281,102944.9531,3931.0906,3619.2837,4524.3950,3761.4856,103464.3906,90436.0234,110056.0938,116086.6172,3890.3433,2986.7742,3702.0298,55631.9023,93507.2031,141593.5156,218.899872
2391.9048,2039.6637,3360.3164,3645.4575,121577.1719,138083.9063,157858.0313,103969.9141,3682.0920,3626.1011,3655.4937,3926.1509,103363.2266,90720.7188,109935.4219,117139.0313,3904.7603,3825.5679,3865.1082,55398.8203,94147.8438,141435.7969,218.903870
-2339.7805,-2397.1797,639.3940,3562.8904,121525.1328,138348.4688,157845.0156,105052.3906,3388.9714,3613.9863,711.9924,4074.5664,103239.6406,91010.5078,109805.3516,118295.3281,3879.2122,4432.3062,4027.4712,55117.9023,94772.8047,141260.6250,218.907867
-1494.5046,-1361.1989,1423.3143,3587.0525,121531.5469,138287.7344,157843.7656,104800.2422,3471.7400,3631.5771,1608.5879,4033.7075,103254.2813,90947.2813,109841.6797,118098.4141,3848.2998,4256.3530,3985.6064,55152.1445,94570.3594,141296.4844,218.911865
3420.2861,3172.2488,3739.8491,3673.0398,121584.5859,137958.9688,157848.2969,103506.0313,3811.5757,3626.5034,4111.4019,3839.1802,103389.2656,90589.8281,109989.9609,116736.6563,3861.2190,3521.4949,3786.9888,55467.2383,93796.1641,141500.9063,218.915863
4715.9272,4210.9565,4080.1990,3706.1873,121610.7656,137815.2031,157853.4688,102937.5547,3929.8835,3608.5996,4522.3613,3760.1892,103459.3828,90430.4844,110049.0781,116077.7891,3896.6689,3066.8157,3708.4001,55633.4883,93506.4609,141594.7656,218.919861
2418.5481,2109.9375,3350.8616,3645.0776,121570.0156,138077.4219,157853.0625,103959.5938,3681.1758,3625.0281,3648.6763,3925.7039,103357.9922,90713.9063,109928.9141,117127.4766,3905.5203,3824.2939,3865.4883,55395.1523,94138.1875,141429.9375,218.923859
-2322.4355,-2364.7698,672.1393,3565.6172,121520.7734,138344.9531,157842.3750,105047.2969,3388.7478,3621.8318,758.9088,4077.4944,103235.8438,91005.8828,109800.5234,118288.8438,3878.3403,4431.0767,4026.6443,55111.9336,94762.8125,141251.8594,218.927856
-1491.9119,-1401.2979,1439.8770,3578.0225,121515.9688,138275.0000,157831.5156,104789.6875,3468.9236,3615.5732,1679.3983,4026.3984,103241.3828,90935.0547,109826.7656,118085.4922,3846.9138,4257.1802,3985.0923,55144.4570,94562.9375,141287.0781,218.931854
3417.0898,3166.0352,3725.2981,3668.3457,121573.4609,137950.8750,157840.0156,103499.5000,3807.0830,3620.3342,4113.1904,3835.9392,103379.8984,90581.5156,109979.3203,116729.1875,3859.1179,3498.2937,3785.9382,55459.4375,93788.6797,141492.1406,218.935852
4715.3237,4208.9229,4079.4390,3705.8745,121603.5859,137808.8750,157848.1719,102930.1797,3928.7883,3613.9194,4522.8306,3759.8762,103452.8750,90423.4453,110041.6797,116069.9453,3892.5562,2981.4097,3704.4216,55624.5703,93494.3516,141584.6094,218.939850
2431.7803,2075.9854,3349.1406,3638.2156,121556.8984,138065.0156,157842.8438,103944.0156,3675.5430,3613.3381,3646.9329,3918.8865,103347.8672,90702.0547,109917.2031,117110.3984,3903.9109,3818.3037,3863.4766,55389.8789,94128.0625,141424.4219,218.943848
-2315.1265,-2379.0750,589.5943,3559.2917,121511.8984,138337.5313,157836.0781,105037.8594,3358.1931,3619.4849,679.8506,4075.0359,103229.1563,90998.4375,109792.4609,118278.6328,3877.3347,4429.3335,4025.6384,55106.7500,94754.5391,141246.4531,218.947845
-1465.9167,-1382.3883,1337.1036,3577.8884,121510.7578,138271.6563,157828.2500,104788.2344,3461.1453,3624.9612,1574.1439,4028.2537,103236.5156,90931.2734,109820.7969,118083.5000,3844.5669,4256.7109,3983.5500,55135.8047,94554.6484,141277.4375,218.951843
3419.7498,3163.9563,3707.7520,3664.0989,121562.4141,137942.6719,157832.0156,103494.4531,3802.8362,3612.5334,4089.3633,3832.8994,103370.8438,90573.7109,109968.5234,116722.5469,3859.5203,3521.2266,3787.3242,55452.5508,93783.1328,141484.1406,218.955841
4717.6934,4211.5156,4079.9978,3706.2319,121597.4219,137804.3594,157844.5313,102924.0156,3931.0234,3613.2935,4523.9927,3760.4797,103448.5391,90418.5000,110036.2500,116062.6328,3893.9866,2979.7556,3706.7686,55621.2422,93487.6875,141579.7188,218.959839
2485.6926,2131.1494,3357.5449,3645.0776,121556.8984,138064.8438,157844.2813,103940.4141,3683.7908,3626.6150,3661.2156,3924.8320,103348.4688,90701.0547,109917.0703,117106.0859,3905.2520,3785.4019,3865.2424,55387.7109,94120.2656,141420.8438,218.963837
-2288.8408,-2358.9807,601.8207,3561.3928,121503.6328,138330.4531,157830.3750,105029.4141,3377.6167,3613.1816,702.7165,4073.6724,103223.2109,90991.7813,109785.1484,118268.5313,3879.1897,4431.0542,4027.6501,55104.1328,94748.6172,141242.8438,218.967834
-1610.7113,-1524.6348,1342.2445,3578.0000,121503.5000,138267.3906,157823.5781,104784.8203,3458.7534,3620.5354,1625.3070,4028.7454,103231.2578,90926.7578,109814.5156,118079.4375,3846.0869,4260.1084,3985.8970,55132.4961,94551.5156,141273.8125,218.971832
3344.8491,3102.9360,3698.5430,3668.7480,121561.1641,137943.7656,157832.3906,103497.6250,3807.2395,3624.9387,4103.4448,3839.4485,103369.2578,90573.6484,109966.1719,116725.5625,3860.5037,3533.5425,3789.4922,55447.7031,93778.9531,141478.0938,218.975830
4712.7310,4205.9053,4076.8015,3703.3486,121587.8516,137796.3281,157837.5313,102915.2266,3929.1460,3608.0854,4521.6011,3758.1775,103440.6094,90410.1875,110026.7500,116052.1719,3894.8359,3059.0820,3707.5508,55616.3906,93480.0469,141573.4844,218.979828
2364.7251,1989.3945,3324.2854,3641.8589,121547.3047,138056.2813,157837.1563,103927.4688,3681.5557,3621.8542,3666.6023,3921.4346,103341.3203,90691.8203,109908.7109,117092.0938,3904.2461,3809.3406,3863.3647,55382.3477,94108.9063,141413.9375,218.983826
-2367.8320,-2448.2759,603.0724,3561.4375,121501.1250,138328.5000,157829.3125,105025.5469,3361.5459,3627.5540,747.5093,4077.4050,103221.0859,90988.6719,109782.1094,118264.3047,3877.0439,4428.2383,4025.4150,55097.2266,94738.0859,141234.6094,218.987823
-1554.6085,-1475.5951,1365.6022,3572.4121,121493.0781,138259.2188,157815.8750,104778.6953,3459.4465,3616.2214,1634.2253,4025.7502,103222.7656,90919.0469,109804.3516,118071.9453,3845.0811,4261.0024,3985.6511,55125.8164,94545.2344,141266.6563,218.991821
3368.9666,3118.3811,3702.3206,3664.5459,121549.9688,137935.8438,157824.2500,103491.2578,3802.5681,3617.3169,4097.1865,3835.8052,103360.6328,90566.0000,109956.5156,116718.9922,3856.9722,3461.1899,3787.8606,55440.3047,93772.4453,141471.0938,218.995819
3368.9666,3118.3811,3702.3206,3664.5459,121549.9688,137935.8438,157824.2500,103491.2578,3802.5681,3617.3169,4097.1865,3835.8052,103360.6328,90566.0000,109956.5156,116718.9922,3856.9722,3461.1899,3787.8606,55440.3047,93772.4453,141471.0938,218.999817
4718.1851,4211.3589,4081.5625,3708.9143,121586.1563,137795.6563,157837.6250,102913.3984,3932.7000,3621.3625,4527.4800,3763.0950,103439.6250,90408.9141,110025.3828,116050.9688,3891.3716,2898.0376,3705.8967,55610.3555,93471.2813,141567.4219,219.003815
4718.1851,4211.3589,4081.5625,3708.9143,121586.1563,137795.6563,157837.6250,102913.3984,3932.7000,3621.3625,4527.4800,3763.0950,103439.6250,90408.9141,110025.3828,116050.9688,3891.3716,2898.0376,3705.8967,55610.3555,93471.2813,141567.4219,219.007813
2453.7297,2085.3953,3374.6216,3638.5732,121536.5078,138045.6875,157828.9688,103914.2422,3679.9463,3615.0146,3673.0173,3917.4336,103332.8672,90681.7578,109898.6719,117077.0703,3903.4639,3780.2163,3862.6719,55377.4727,94098.6719,141407.9063,219.011810
-2306.0964,-2378.8738,579.2007,3559.8953,121488.1172,138317.4219,157819.2500,105012.4688,3338.5234,3614.4780,683.3822,4072.2195,103210.6719,90977.2500,109770.2656,118249.2656,3876.1946,4426.7183,4024.4985,55090.8125,94727.6953,141226.1563,219.015808
-2306.0964,-2378.8738,579.2007,3559.8953,121488.1172,138317.4219,157819.2500,105012.4688,3338.5234,3614.4780,683.3822,4072.2195,103210.6719,90977.2500,109770.2656,118249.2656,3876.1946,4426.7183,4024.4985,55090.8125,94727.6953,141226.1563,219.019806
-1637.2429,-1550.0487,1287.4828,3581.7776,121493.5078,138261.8438,157817.9063,104782.4922,3395.5874,3630.6831,1578.4578,4034.4004,103222.6094,90919.7188,109803.5703,118075.2344,3846.0422,4263.8188,3987.0818,55120.0938,94538.9609,141258.5781,219.023804
-1637.2429,-1550.0487,1287.4828,3581.7776,121493.5078,138261.8438,157817.9063,104782.4922,3395.5874,3630.6831,1578.4578,4034.4004,103222.6094,90919.7188,109803.5703,118075.2344,3846.0422,4263.8188,3987.0818,55120.0938,94538.9609,141258.5781,219.027802
3321.1785,3082.0371,3696.1067,3664.5459,121543.2813,137931.5156,157820.2344,103489.8672,3800.7129,3616.7581,4102.0815,3837.6602,103355.1094,90561.7969,109949.2969,116716.0000,3861.2190,3540.3149,3791.6379,55436.5938,93769.3438,141465.6406,219.031799
4716.1284,4209.4590,4079.1709,3706.4778,121577.3047,137788.6875,157831.6563,102904.6328,3933.1023,3613.0701,4525.7363,3761.4185,103433.6094,90402.0547,110017.8281,116040.7969,3896.4900,3073.1189,3709.5847,55609.1953,93466.6797,141564.7031,219.035797
4716.1284,4209.4590,4079.1709,3706.4778,121577.3047,137788.6875,157831.6563,102904.6328,3933.1023,3613.0701,4525.7363,3761.4185,103433.6094,90402.0547,110017.8281,116040.7969,3896.4900,3073.1189,3709.5847,55609.1953,93466.6797,141564.7031,219.039795
2403.7737,2030.5219,3360.5623,3649.7715,121540.9375,138050.7188,157834.6250,103914.9766,3692.8657,3636.4722,3702.8123,3927.9836,103337.5391,90684.9766,109903.0547,117078.2344,3906.4812,3810.0334,3865.1082,55376.3555,94091.9453,141404.9531,219.043793
-2342.2168,-2422.5266,652.4250,3563.3821,121485.1484,138315.3438,157818.3906,105009.0938,3388.1443,3620.4907,802.8076,4075.7510,103209.1094,90975.1250,109767.3984,118245.0625,3879.1675,4429.6685,4027.7395,55089.6953,94723.7188,141224.5313,219.047791
-2342.2168,-2422.5266,652.4250,3563.3821,121485.1484,138315.3438,157818.3906,105009.0938,3388.1443,3620.4907,802.8076,4075.7510,103209.1094,90975.1250,109767.3984,118245.0625,3879.1675,4429.6685,4027.7395,55089.6953,94723.7188,141224.5313,219.051788
-1591.4889,-1513.9507,1352.7946,3574.6919,121479.9141,138251.1406,157807.7344,104773.1953,3456.0042,3615.3274,1623.8094,4028.2090,103212.5703,90910.2188,109791.6094,118064.3672,3846.9363,4266.4336,3988.9817,55116.1133,94535.5625,141255.2813,219.055786
3342.3232,3093.5483,3708.4673,3672.7490,121544.5156,137935.5781,157823.2656,103495.5938,3809.0947,3631.3984,4105.0767,3846.0869,103356.8281,90564.9297,109950.5313,116722.3438,3862.2024,3490.7834,3795.2366,55433.3320,93767.3516,141462.9375,219.059784
4716.4414,4210.0405,4079.0815,3707.0813,121571.2422,137783.6094,157827.5781,102899.5156,3932.7893,3616.6462,4526.4741,3762.2231,103428.1797,90396.5547,110011.2813,116034.5859,3894.0984,3038.2056,3708.9812,55602.6211,93457.9844,141557.7344,219.063782
2463.9221,2096.8840,3354.1697,3638.5957,121523.3438,138033.8125,157820.4063,103895.7734,3681.0193,3613.8970,3665.7083,3917.1206,103323.3516,90669.0234,109886.8281,117055.6797,3905.5425,3821.4553,3864.1248,55370.8555,94081.4141,141398.6250,219.067780
-2306.7224,-2379.9243,551.9316,3566.0195,121481.4141,138313.1094,157816.9063,105005.9688,3354.1475,3625.7881,675.3132,4078.9473,103206.6094,90972.0625,109763.9844,118240.6563,3879.8828,4430.4731,4028.7454,55085.6484,94717.0313,141219.5000,219.071777
-1608.1855,-1524.3666,1297.5858,3579.6094,121478.4609,138252.1250,157808.3594,104777.3984,3407.6797,3626.6150,1564.9349,4034.4451,103211.3906,90910.4219,109789.4375,118067.7422,3847.8079,4270.3677,3991.1497,55111.2188,94532.2109,141249.6719,219.075775
-1608.1855,-1524.3666,1297.5858,3579.6094,121478.4609,138252.1250,157808.3594,104777.3984,3407.6797,3626.6150,1564.9349,4034.4451,103211.3906,90910.4219,109789.4375,118067.7422,3847.8079,4270.3677,3991.1497,55111.2188,94532.2109,141249.6719,219.079773
3321.4468,3078.4163,3700.1299,3660.5674,121526.2500,137920.7813,157808.7344,103484.6172,3796.6448,3611.7959,4094.1912,3836.0286,103341.5000,90550.9141,109933.2969,116709.0000,3860.0566,3530.6367,3793.1804,55424.1211,93759.9531,141453.2031,219.083771
4711.8369,4207.9614,4074.8794,3705.0474,121562.7969,137777.4063,157821.9219,102893.5000,3931.6494,3615.1487,4522.7861,3760.9490,103421.3203,90389.7813,110003.5000,116026.9844,3894.9702,3001.5039,3708.5789,55596.8555,93450.4297,141550.9844,219.087769
-2291.0984,-2362.6240,580.5195,3557.2354,121465.9688,138299.7969,157804.8906,104993.3125,3392.3464,3610.9912,714.5629,4070.8337,103193.7969,90959.3672,109749.5859,118224.6094,3878.3181,4429.5791,4027.9182,55079.3242,94709.1641,141212.5000,219.091766
-1567.3490,-1498.7068,1195.4607,3573.3955,121465.4063,138242.5625,157798.3438,104771.1406,3460.9216,3620.2224,1484.6251,4029.1477,103199.5859,90900.4297,109776.5625,118058.9609,3843.6506,4269.2500,3988.2217,55101.2969,94524.0469,141239.2813,219.095764
4703.2764,4200.1387,4066.8550,3698.6323,121550.2578,137766.9375,157812.6094,102884.2266,3928.3413,3605.7832,4515.2534,3755.6069,103410.8359,90379.6328,109991.7422,116014.6953,3893.2490,3075.0635,3708.6013,55590.1055,93442.1328,141543.0000,219.099762
-2265.8633,-2345.6814,550.4340,3558.4646,121463.6016,138299.0469,157804.5156,104993.6016,3376.7227,3621.3848,679.0236,4075.1475,103191.0703,90957.1563,109746.3906,118222.6406,3878.3853,4431.1436,4028.8125,55073.8242,94702.1953,141205.3750,219.103760
3294.6694,3068.8721,3669.1504,3659.0476,121512.1016,137913.6563,157800.1094,103486.3125,3797.0024,3617.2498,4065.5139,3837.8167,103328.3750,90542.5781,109918.9219,116707.4141,3856.5476,3538.3481,3793.4485,55409.4375,93750.7266,141438.3438,219.107758
4702.3599,4204.6758,4066.6538,3702.0969,121548.2031,137766.9844,157812.1563,102885.4141,3930.4199,3615.3721,4515.7900,3759.2727,103407.6563,90377.4453,109988.2578,116014.6016,3892.8020,2979.2415,3709.0259,55584.3594,93436.1641,141537.7500,219.111755
2479.4565,2133.6528,3335.2378,3643.1331,121530.4531,138042.0000,157823.8281,103890.8594,3693.3799,3619.5073,3677.0405,3920.7864,103313.0859,90655.9922,109874.1953,117042.5781,3920.6299,3800.1987,3882.6321,55357.5352,94056.7422,141381.6875,219.115753
-1604.7434,-1526.6912,1110.1440,3590.3381,121511.0781,138286.8906,157827.2500,104807.8438,3483.0945,3640.6074,1492.8506,4047.6326,103206.7656,90910.1094,109782.0859,118087.9922,3877.2229,4304.4541,4029.4158,55095.7734,94521.5938,141230.6719,219.119751
3299.2068,3068.8049,3644.8765,3673.9561,121562.4844,137959.4844,157830.7813,103520.5391,3813.9226,3626.7046,4062.7424,3852.8147,103339.3750,90554.4688,109929.0938,116736.3203,3890.9468,3607.4150,3833.8157,55410.0391,93752.5547,141436.6250,219.123749
4699.4766,4204.0947,4066.8774,3715.6868,121597.1250,137810.5469,157841.2188,102914.3359,3946.6250,3623.9553,4524.6187,3772.8403,103417.9844,90387.2813,109998.3594,116038.7656,3922.8428,3226.8989,3744.8335,55583.7109,93433.5703,141534.6406,219.127747
