Fp1,Fp2,F3,F4,C3,C4,P3,P4,O1,O2,F7,F8,T7,T8,P7,P8,Fz,Cz,Pz,AFz,Cpz,POz,TimeStamp,Event,EventFile,EventTime
-623.1666,-187500.0156,-187500.0156,-187500.0156,-174646.5625,-179960.0156,-170277.9531,-176320.7969,-187500.0156,-187500.0156,-187500.0156,-187500.0156,-168325.2656,-166493.5313,-167775.0000,-169315.4375,-187500.0156,-187500.0156,-187500.0156,-186604.8750,-182963.1250,-183744.4063,5.119141,NaN,NaN,NaN
-681.5046,-187500.0156,-187500.0156,-187500.0156,-174486.3594,-179628.1406,-170040.5313,-176130.3125,-187500.0156,-187500.0156,-187500.0156,-187500.0156,-168150.9844,-166061.6563,-167603.9063,-169097.8906,-187500.0156,-187500.0156,-187500.0156,-186228.7188,-182812.0469,-183751.7656,5.123138,NaN,NaN,NaN
-636.3541,-187500.0156,-187500.0156,-187500.0156,-173583.0625,-176971.7656,-168434.8281,-174661.6250,-187500.0156,-187500.0156,-187500.0156,-187500.0156,-167047.7031,-162029.4844,-166693.2031,-167174.1250,-187500.0156,-187500.0156,-187500.0156,-184158.9375,-181307.8438,-182471.7656,5.127136,NaN,NaN,NaN
-539.7052,-187500.0156,-187500.0156,-187500.0156,-173188.2344,-175660.5938,-167684.3906,-173951.1719,-187500.0156,-187500.0156,-187500.0156,-187500.0156,-166539.8750,-159960.8281,-166303.2031,-166208.5000,-187500.0156,-187500.0156,-187500.0156,-183229.2031,-180524.6875,-181681.5938,5.131134,NaN,NaN,NaN
-491.8948,-187500.0156,-187500.0156,-187500.0156,-173789.3281,-177347.9844,-168728.9844,-174890.7969,-187500.0156,-187500.0156,-187500.0156,-187500.0156,-167263.7813,-162484.6875,-166917.2969,-167417.3750,-187500.0156,-187500.0156,-187500.0156,-184623.1875,-181460.3906,-182393.7969,5.135132,NaN,NaN,NaN
-600.5243,-187500.0156,-187500.0156,-187500.0156,-174625.2500,-179904.9219,-170249.6250,-176296.3438,-187500.0156,-187500.0156,-187500.0156,-187500.0156,-168303.6406,-166413.7344,-167758.4844,-169280.0625,-187500.0156,-187500.0156,-187500.0156,-186560.0156,-182932.2969,-183718.3906,5.139130,NaN,NaN,NaN
-794.2916,-187500.0156,-187500.0156,-187500.0156,-174501.3594,-179647.5156,-170057.7500,-176148.3750,-187500.0156,-187500.0156,-187500.0156,-187500.0156,-168169.0000,-166085.2969,-167619.9063,-169117.3594,-187500.0156,-187500.0156,-187500.0156,-186247.3281,-182818.3750,-183755.6719,5.143127,NaN,NaN,NaN
-818.6102,-187500.0156,-187500.0156,-187500.0156,-173669.7188,-177072.6563,-168497.9063,-174729.7656,-187500.0156,-187500.0156,-187500.0156,-187500.0156,-167099.4219,-162136.6719,-166739.2969,-167245.2969,-187500.0156,-187500.0156,-187500.0156,-184223.4219,-181342.4219,-182500.2813,5.147125,NaN,NaN,NaN
-692.2559,-187500.0156,-187500.0156,-187500.0156,-173296.2500,-175775.0469,-167748.3438,-174023.7656,-187500.0156,-187500.0156,-187500.0156,-187500.0156,-166589.6094,-160075.5000,-166345.4531,-166279.1094,-187500.0156,-187500.0156,-187500.0156,-183298.8906,-180565.0313,-181717.0781,5.151123,NaN,NaN,NaN
-511.1397,-187500.0156,-187500.0156,-187500.0156,-174722.3281,-179958.0938,-170282.4375,-176342.7188,-187500.0156,-187500.0156,-187500.0156,-187500.0156,-168321.8594,-166423.1719,-167782.3125,-169312.2031,-187500.0156,-187500.0156,-187500.0156,-186547.3438,-182929.6250,-183721.4375,5.155121,NaN,NaN,NaN
-616.9976,-187500.0156,-187500.0156,-187500.0156,-174568.6563,-179650.0156,-170057.2969,-176162.7813,-187500.0156,-187500.0156,-187500.0156,-187500.0156,-168156.2969,-166029.7969,-167617.4219,-169109.5313,-187500.0156,-187500.0156,-187500.0156,-186195.8125,-182793.5000,-183740.2969,5.159119,NaN,NaN,NaN
-651.7545,-187500.0156,-187500.0156,-187500.0156,-173689.2813,-177032.3125,-168478.1875,-174719.7656,-187500.0156,-187500.0156,-187500.0156,-187500.0156,-167076.7344,-162048.3906,-166727.9531,-167218.4531,-187500.0156,-187500.0156,-187500.0156,-184154.4219,-181305.1563,-182473.5781,5.163116,NaN,NaN,NaN
-625.3347,-187500.0156,-187500.0156,-187500.0156,-173293.0000,-175725.1406,-167726.9531,-174007.4063,-187500.0156,-187500.0156,-187500.0156,-187500.0156,-166571.7656,-159993.2500,-166335.6250,-166251.9844,-187500.0156,-187500.0156,-187500.0156,-183242.5156,-180530.0781,-181689.8125,5.167114,NaN,NaN,NaN
-609.6215,-187500.0156,-187500.0156,-187500.0156,-173894.2656,-177415.9375,-168771.0000,-174945.9844,-187500.0156,-187500.0156,-187500.0156,-187500.0156,-167298.3125,-162523.4688,-166949.7344,-167460.2969,-187500.0156,-187500.0156,-187500.0156,-184646.0781,-181470.4375,-182405.7344,5.171112,NaN,NaN,NaN
-789.2848,-187500.0156,-187500.0156,-187500.0156,-174609.8281,-179729.2813,-170109.5938,-176212.5625,-187500.0156,-187500.0156,-187500.0156,-187500.0156,-168207.4063,-166146.7969,-167656.6563,-169173.2813,-187500.0156,-187500.0156,-187500.0156,-186270.4219,-182836.0156,-183776.2813,5.175110,NaN,NaN,NaN
-579.3796,-187500.0156,-187500.0156,-187500.0156,-173305.2969,-175744.3594,-167741.1250,-174023.2031,-187500.0156,-187500.0156,-187500.0156,-187500.0156,-166587.2344,-160021.2344,-166347.0469,-166271.2031,-187500.0156,-187500.0156,-187500.0156,-183251.0781,-180540.8281,-181704.4531,5.179108,NaN,NaN,NaN
-453.1369,-187500.0156,-187500.0156,-187500.0156,-173888.0469,-177376.9844,-168753.7813,-174933.7813,-187500.0156,-187500.0156,-187500.0156,-187500.0156,-167285.0781,-162460.6719,-166941.2813,-167440.8750,-187500.0156,-187500.0156,-187500.0156,-184595.0781,-181444.9531,-182390.2031,5.183105,NaN,NaN,NaN
-497.9298,-187500.0156,-187500.0156,-187500.0156,-174718.6563,-179915.5313,-170265.0313,-176330.6406,-187500.0156,-187500.0156,-187500.0156,-187500.0156,-168314.2344,-166359.6875,-167776.2188,-169290.9063,-187500.0156,-187500.0156,-187500.0156,-186511.5938,-182904.6719,-183703.3750,5.187103,NaN,NaN,NaN
-765.8602,-187500.0156,-187500.0156,-187500.0156,-173719.7031,-177079.2500,-168514.6719,-174757.1563,-187500.0156,-187500.0156,-187500.0156,-187500.0156,-167115.3594,-162121.2500,-166757.1250,-167263.3281,-187500.0156,-187500.0156,-187500.0156,-184199.7344,-181331.2500,-182498.9688,5.191101,NaN,NaN,NaN
-726.1188,-187500.0156,-187500.0156,-187500.0156,-173315.2813,-175762.2500,-167754.3438,-174036.2656,-187500.0156,-187500.0156,-187500.0156,-187500.0156,-166604.7500,-160054.4219,-166358.1563,-166287.4063,-187500.0156,-187500.0156,-187500.0156,-183282.4375,-180553.7188,-181714.5781,5.195099,NaN,NaN,NaN
-634.5884,-187500.0156,-187500.0156,-187500.0156,-173916.8438,-177434.6250,-168791.5781,-174969.8281,-187500.0156,-187500.0156,-187500.0156,-187500.0156,-167325.6250,-162548.8125,-166971.3281,-167487.7344,-187500.0156,-187500.0156,-187500.0156,-184657.4531,-181477.2656,-182416.9531,5.199097,NaN,NaN,NaN
-621.9149,-187500.0156,-187500.0156,-187500.0156,-174753.7969,-179985.3750,-170311.3750,-176375.3594,-187500.0156,-187500.0156,-187500.0156,-187500.0156,-168361.0156,-166464.4844,-167811.4844,-169348.5938,-187500.0156,-187500.0156,-187500.0156,-186576.7344,-182943.1875,-183737.2969,5.203094,NaN,NaN,NaN
-679.7166,-187500.0156,-187500.0156,-187500.0156,-174608.8281,-179707.3281,-170104.2500,-176212.2344,-187500.0156,-187500.0156,-187500.0156,-187500.0156,-168206.4375,-166116.1875,-167655.4375,-169167.3125,-187500.0156,-187500.0156,-187500.0156,-186244.6094,-182825.1875,-183773.7188,5.207092,NaN,NaN,NaN
-638.0529,-187500.0156,-187500.0156,-187500.0156,-173719.7031,-177069.0781,-168512.5156,-174758.2188,-187500.0156,-187500.0156,-187500.0156,-187500.0156,-167114.3750,-162104.6563,-166756.8125,-167262.0469,-187500.0156,-187500.0156,-187500.0156,-184177.6250,-181325.2969,-182500.0938,5.211090,NaN,NaN,NaN
-541.9627,-187500.0156,-187500.0156,-187500.0156,-173302.3281,-175705.8750,-167728.0000,-174015.8281,-187500.0156,-187500.0156,-187500.0156,-187500.0156,-166581.5938,-159963.8281,-166343.4844,-166255.6875,-187500.0156,-187500.0156,-187500.0156,-183213.0000,-180517.3281,-181689.6094,5.215088,NaN,NaN,NaN
-492.2748,-187500.0156,-187500.0156,-187500.0156,-173887.7344,-177351.1875,-168746.1719,-174930.3281,-187500.0156,-187500.0156,-187500.0156,-187500.0156,-167287.3594,-162424.2031,-166942.1563,-167431.7188,-187500.0156,-187500.0156,-187500.0156,-184578.5469,-181430.7500,-182381.0156,5.219086,NaN,NaN,NaN
-599.4514,-187500.0156,-187500.0156,-187500.0156,-174744.2813,-179939.5625,-170290.4688,-176358.5469,-187500.0156,-187500.0156,-187500.0156,-187500.0156,-168345.2344,-166391.0469,-167802.0000,-169321.9063,-187500.0156,-187500.0156,-187500.0156,-186532.9375,-182913.2813,-183712.3125,5.223083,NaN,NaN,NaN
-793.4199,-187500.0156,-187500.0156,-187500.0156,-174626.0000,-179726.3281,-170122.3594,-176231.0938,-187500.0156,-187500.0156,-187500.0156,-187500.0156,-168225.6875,-166141.0625,-167672.4531,-169188.5781,-187500.0156,-187500.0156,-187500.0156,-186262.8438,-182831.2656,-183777.3281,5.227081,NaN,NaN,NaN
-819.3478,-187500.0156,-187500.0156,-187500.0156,-173742.3125,-177126.4219,-168547.7656,-174791.3906,-187500.0156,-187500.0156,-187500.0156,-187500.0156,-167150.2969,-162197.1250,-166781.1406,-167305.1875,-187500.0156,-187500.0156,-187500.0156,-184243.0469,-181361.6250,-182530.0781,5.231079,NaN,NaN,NaN
-694.4016,-187500.0156,-187500.0156,-187500.0156,-173335.1406,-175779.4063,-167774.2500,-174060.1875,-187500.0156,-187500.0156,-187500.0156,-187500.0156,-166628.1094,-160074.8438,-166377.5000,-166313.3125,-187500.0156,-187500.0156,-187500.0156,-183283.4219,-180559.9375,-181727.1563,5.235077,NaN,NaN,NaN
-538.6994,-187500.0156,-187500.0156,-187500.0156,-173912.0313,-177395.2656,-168776.6094,-174961.2031,-187500.0156,-187500.0156,-187500.0156,-187500.0156,-167319.4063,-162488.0781,-166966.1563,-167470.4688,-187500.0156,-187500.0156,-187500.0156,-184613.0156,-181454.9375,-182405.2969,5.239075,NaN,NaN,NaN
-508.7704,-187500.0156,-187500.0156,-187500.0156,-174738.5781,-179927.4531,-170283.8750,-176354.6250,-187500.0156,-187500.0156,-187500.0156,-187500.0156,-168342.7344,-166376.9219,-167797.2500,-169315.6875,-187500.0156,-187500.0156,-187500.0156,-186517.9063,-182910.4375,-183715.0781,5.243073,NaN,NaN,NaN
-616.2599,-187500.0156,-187500.0156,-187500.0156,-174614.4219,-179685.3594,-170102.6719,-176216.1563,-187500.0156,-187500.0156,-187500.0156,-187500.0156,-168208.3438,-166075.4688,-167661.2344,-169165.7813,-187500.0156,-187500.0156,-187500.0156,-186207.9531,-182805.3281,-183761.0781,5.247070,NaN,NaN,NaN
-653.1179,-187500.0156,-187500.0156,-187500.0156,-173728.2500,-177066.7344,-168520.2969,-174769.7188,-187500.0156,-187500.0156,-187500.0156,-187500.0156,-167125.3750,-162101.0625,-166766.0625,-167271.7500,-187500.0156,-187500.0156,-187500.0156,-184170.1719,-181322.1563,-182501.1875,5.251068,NaN,NaN,NaN
-653.1179,-187500.0156,-187500.0156,-187500.0156,-173728.2500,-177066.7344,-168520.2969,-174769.7188,-187500.0156,-187500.0156,-187500.0156,-187500.0156,-167125.3750,-162101.0625,-166766.0625,-167271.7500,-187500.0156,-187500.0156,-187500.0156,-184170.1719,-181322.1563,-182501.1875,5.255066,NaN,NaN,NaN
-626.5641,-187500.0156,-187500.0156,-187500.0156,-173313.3594,-175716.6875,-167741.0469,-174031.3750,-187500.0156,-187500.0156,-187500.0156,-187500.0156,-166600.8281,-159982.9219,-166356.7344,-166272.4063,-187500.0156,-187500.0156,-187500.0156,-183226.3125,-180524.6563,-181699.1563,5.259064,NaN,NaN,NaN
-610.7838,-187500.0156,-187500.0156,-187500.0156,-173912.7969,-177378.5000,-168772.1406,-174958.8281,-187500.0156,-187500.0156,-187500.0156,-187500.0156,-167320.2188,-162460.6094,-166968.4375,-167464.8125,-187500.0156,-187500.0156,-187500.0156,-184600.0625,-181441.5156,-182393.2656,5.263062,NaN,NaN,NaN
-678.1296,-187500.0156,-187500.0156,-187500.0156,-174763.2969,-179966.1563,-170313.2656,-176383.2188,-187500.0156,-187500.0156,-187500.0156,-187500.0156,-168374.0156,-166432.0625,-167822.1250,-169350.4688,-187500.0156,-187500.0156,-187500.0156,-186558.2031,-182928.4375,-183728.5625,5.267059,NaN,NaN,NaN
-787.6531,-187500.0156,-187500.0156,-187500.0156,-174640.6719,-179753.5313,-170144.2188,-176254.7031,-187500.0156,-187500.0156,-187500.0156,-187500.0156,-168249.9375,-166184.4688,-167689.1094,-169216.0469,-187500.0156,-187500.0156,-187500.0156,-186282.9844,-182848.5469,-183797.4063,5.271057,NaN,NaN,NaN
-740.8038,-187500.0156,-187500.0156,-187500.0156,-173758.9688,-177138.6250,-168565.6094,-174813.1250,-187500.0156,-187500.0156,-187500.0156,-187500.0156,-167168.4375,-162209.2656,-166797.7656,-167327.8750,-187500.0156,-187500.0156,-187500.0156,-184233.3281,-181363.5156,-182539.3438,5.275055,NaN,NaN,NaN
-581.6371,-187500.0156,-187500.0156,-187500.0156,-173327.7344,-175738.5000,-167758.5781,-174050.8438,-187500.0156,-187500.0156,-187500.0156,-187500.0156,-166618.6406,-160012.9219,-166370.7813,-166295.5469,-187500.0156,-187500.0156,-187500.0156,-183233.7188,-180535.0781,-181713.7969,5.279053,NaN,NaN,NaN
-453.6510,-187500.0156,-187500.0156,-187500.0156,-173892.8750,-177327.6094,-168743.7500,-174935.3438,-187500.0156,-187500.0156,-187500.0156,-187500.0156,-167298.1250,-162387.9688,-166949.8281,-167432.0156,-187500.0156,-187500.0156,-187500.0156,-184547.6563,-181415.8438,-182377.6719,5.283051,NaN,NaN,NaN
-496.4099,-187500.0156,-187500.0156,-187500.0156,-174742.6250,-179897.1563,-170278.4688,-176354.3906,-187500.0156,-187500.0156,-187500.0156,-187500.0156,-168344.7656,-166324.1563,-167802.6250,-169308.7813,-187500.0156,-187500.0156,-187500.0156,-186481.0938,-182885.9219,-183697.3281,5.287048,NaN,NaN,NaN
-679.0236,-187500.0156,-187500.0156,-187500.0156,-174629.9531,-179699.5938,-170121.0625,-176236.7500,-187500.0156,-187500.0156,-187500.0156,-187500.0156,-168230.2656,-166097.0625,-167678.6250,-169187.2969,-187500.0156,-187500.0156,-187500.0156,-186220.8750,-182811.6875,-183768.7969,5.291046,NaN,NaN,NaN
-767.0448,-187500.0156,-187500.0156,-187500.0156,-173749.8281,-177109.3438,-168552.1250,-174802.2188,-187500.0156,-187500.0156,-187500.0156,-187500.0156,-167160.1094,-162169.2344,-166790.9688,-167311.0938,-187500.0156,-187500.0156,-187500.0156,-184213.3281,-181348.0625,-182526.6563,5.295044,NaN,NaN,NaN
-727.9739,-187500.0156,-187500.0156,-187500.0156,-173343.9688,-175764.1406,-167778.7969,-174070.7969,-187500.0156,-187500.0156,-187500.0156,-187500.0156,-166641.7188,-160050.6406,-166388.8125,-166319.7969,-187500.0156,-187500.0156,-187500.0156,-183263.9063,-180547.7969,-181723.6719,5.299042,NaN,NaN,NaN
-635.2813,-187500.0156,-187500.0156,-187500.0156,-173925.8750,-177390.2344,-168786.7188,-174976.6250,-187500.0156,-187500.0156,-187500.0156,-187500.0156,-167341.5781,-162479.2031,-166982.8594,-167483.5000,-187500.0156,-187500.0156,-187500.0156,-184609.9531,-181449.3125,-182405.7031,5.303040,NaN,NaN,NaN
-619.6797,-187500.0156,-187500.0156,-187500.0156,-174763.6406,-179953.4688,-170312.2188,-176386.4531,-187500.0156,-187500.0156,-187500.0156,-187500.0156,-168379.8594,-166414.9063,-167824.7344,-169350.1250,-187500.0156,-187500.0156,-187500.0156,-186543.4063,-182923.7188,-183730.9375,5.307037,NaN,NaN,NaN
-679.1801,-187500.0156,-187500.0156,-187500.0156,-174648.4375,-179741.0156,-170148.2656,-176264.2188,-187500.0156,-187500.0156,-187500.0156,-187500.0156,-168256.4531,-166158.3438,-167697.6875,-169221.6719,-187500.0156,-187500.0156,-187500.0156,-186252.0000,-182836.0156,-183793.6719,5.311035,NaN,NaN,NaN
-639.7516,-187500.0156,-187500.0156,-187500.0156,-173753.6719,-177103.2656,-168554.0938,-174807.7969,-187500.0156,-187500.0156,-187500.0156,-187500.0156,-167161.6875,-162155.2813,-166793.8125,-167314.6875,-187500.0156,-187500.0156,-187500.0156,-184189.7031,-181341.7031,-182527.4688,5.315033,NaN,NaN,NaN
-543.7732,-187500.0156,-187500.0156,-187500.0156,-173318.1875,-175696.5938,-167741.5625,-174039.5313,-187500.0156,-187500.0156,-187500.0156,-187500.0156,-166609.7031,-159951.7813,-166363.6719,-166275.5625,-187500.0156,-187500.0156,-187500.0156,-183193.8125,-180511.7188,-181698.9531,5.319031,NaN,NaN,NaN
-493.6159,-187500.0156,-187500.0156,-187500.0156,-173902.3750,-177312.7813,-168746.7188,-174943.0000,-187500.0156,-187500.0156,-187500.0156,-187500.0156,-167308.3438,-162358.9063,-166960.2344,-167435.4844,-187500.0156,-187500.0156,-187500.0156,-184528.7031,-181401.1563,-182368.2500,5.323029,NaN,NaN,NaN
-598.4009,-187500.0156,-187500.0156,-187500.0156,-174757.7188,-179909.8281,-170294.7656,-176373.1875,-187500.0156,-187500.0156,-187500.0156,-187500.0156,-168367.5469,-166343.4844,-167819.1094,-169328.0781,-187500.0156,-187500.0156,-187500.0156,-186497.5000,-182892.2969,-183704.5938,5.327026,NaN,NaN,NaN
-792.1682,-187500.0156,-187500.0156,-187500.0156,-174653.4844,-179748.9375,-170156.3594,-176272.3281,-187500.0156,-187500.0156,-187500.0156,-187500.0156,-168267.7656,-166175.5313,-167705.0000,-169230.5781,-187500.0156,-187500.0156,-187500.0156,-186270.4531,-182842.2031,-183797.4219,5.331024,NaN,NaN,NaN
-821.1807,-187500.0156,-187500.0156,-187500.0156,-173783.9844,-177169.7969,-168597.6406,-174848.8906,-187500.0156,-187500.0156,-187500.0156,-187500.0156,-167204.6250,-162256.5781,-166826.1875,-167367.5469,-187500.0156,-187500.0156,-187500.0156,-184257.2656,-181378.7656,-182558.0000,5.335022,NaN,NaN,NaN
-696.6591,-187500.0156,-187500.0156,-187500.0156,-173353.9844,-175772.1875,-167790.8281,-174086.6250,-187500.0156,-187500.0156,-187500.0156,-187500.0156,-166658.4063,-160064.6094,-166400.2344,-166336.2031,-187500.0156,-187500.0156,-187500.0156,-183264.8281,-180553.2031,-181735.5625,5.339020,NaN,NaN,NaN
-539.1241,-187500.0156,-187500.0156,-187500.0156,-173912.7500,-177343.7656,-168765.1250,-174961.0156,-187500.0156,-187500.0156,-187500.0156,-187500.0156,-167330.0938,-162412.0156,-166972.2344,-167458.9063,-187500.0156,-187500.0156,-187500.0156,-184564.4219,-181424.6406,-182391.8125,5.343018,NaN,NaN,NaN
-507.9210,-187500.0156,-187500.0156,-187500.0156,-174758.7188,-179905.0938,-170295.4375,-176376.0156,-187500.0156,-187500.0156,-187500.0156,-187500.0156,-168370.5469,-166334.8438,-167821.1875,-169329.7500,-187500.0156,-187500.0156,-187500.0156,-186484.7813,-182889.6094,-183707.3750,5.347015,NaN,NaN,NaN
-615.8799,-187500.0156,-187500.0156,-187500.0156,-174645.7813,-179710.9063,-170140.9844,-176261.5156,-187500.0156,-187500.0156,-187500.0156,-187500.0156,-168253.5781,-166112.8438,-167697.1250,-169212.1719,-187500.0156,-187500.0156,-187500.0156,-186217.9688,-182816.5156,-183781.2813,5.351013,NaN,NaN,NaN
-615.8799,-187500.0156,-187500.0156,-187500.0156,-174645.7813,-179710.9063,-170140.9844,-176261.5156,-187500.0156,-187500.0156,-187500.0156,-187500.0156,-168253.5781,-166112.8438,-167697.1250,-169212.1719,-187500.0156,-187500.0156,-187500.0156,-186217.9688,-182816.5156,-183781.2813,5.355011,NaN,NaN,NaN
-654.1909,-187500.0156,-187500.0156,-187500.0156,-173757.0469,-177099.0938,-168559.6250,-174816.2656,-187500.0156,-187500.0156,-187500.0156,-187500.0156,-167171.0000,-162153.0469,-166800.7656,-167321.3750,-187500.0156,-187500.0156,-187500.0156,-184187.2188,-181339.8594,-182529.6094,5.359009,NaN,NaN,NaN
-629.1793,-187500.0156,-187500.0156,-187500.0156,-173339.6094,-175718.2031,-167765.3906,-174065.9688,-187500.0156,-187500.0156,-187500.0156,-187500.0156,-166637.9219,-159980.2656,-166387.5000,-166305.0000,-187500.0156,-187500.0156,-187500.0156,-183210.0156,-180518.6875,-181708.2500,5.363007,NaN,NaN,NaN
-629.1793,-187500.0156,-187500.0156,-187500.0156,-173339.6094,-175718.2031,-167765.3906,-174065.9688,-187500.0156,-187500.0156,-187500.0156,-187500.0156,-166637.9219,-159980.2656,-166387.5000,-166305.0000,-187500.0156,-187500.0156,-187500.0156,-183210.0156,-180518.6875,-181708.2500,5.367004,NaN,NaN,NaN
-611.5884,-187500.0156,-187500.0156,-187500.0156,-173918.1406,-177330.5938,-168765.2344,-174963.6406,-187500.0156,-187500.0156,-187500.0156,-187500.0156,-167334.7344,-162387.9844,-166978.6406,-167458.4531,-187500.0156,-187500.0156,-187500.0156,-184552.7656,-181411.9219,-182380.2656,5.371002,NaN,NaN,NaN
-675.8943,-187500.0156,-187500.0156,-187500.0156,-174770.9844,-179933.5313,-170314.5625,-176394.4375,-187500.0156,-187500.0156,-187500.0156,-187500.0156,-168394.2188,-166384.5000,-167836.6094,-169353.3281,-187500.0156,-187500.0156,-187500.0156,-186527.1719,-182909.2969,-183722.0938,5.375977,NaN,NaN,NaN
-675.8943,-187500.0156,-187500.0156,-187500.0156,-174770.9844,-179933.5313,-170314.5625,-176394.4375,-187500.0156,-187500.0156,-187500.0156,-187500.0156,-168394.2188,-166384.5000,-167836.6094,-169353.3281,-187500.0156,-187500.0156,-187500.0156,-186527.1719,-182909.2969,-183722.0938,5.379974,NaN,NaN,NaN
-787.0272,-187500.0156,-187500.0156,-187500.0156,-174678.5469,-179786.8125,-170189.1719,-176307.3594,-187500.0156,-187500.0156,-187500.0156,-187500.0156,-168301.5625,-166229.0313,-167732.9219,-169271.9844,-187500.0156,-187500.0156,-187500.0156,-186293.4531,-182860.2344,-183818.0781,5.383972,NaN,NaN,NaN
-742.8378,-187500.0156,-187500.0156,-187500.0156,-173790.3125,-177170.8125,-168606.6875,-174861.9844,-187500.0156,-187500.0156,-187500.0156,-187500.0156,-167216.0156,-162259.9531,-166835.2188,-167380.2656,-187500.0156,-187500.0156,-187500.0156,-184247.6406,-181379.8594,-182566.5000,5.387970,NaN,NaN,NaN
-742.8378,-187500.0156,-187500.0156,-187500.0156,-173790.3125,-177170.8125,-168606.6875,-174861.9844,-187500.0156,-187500.0156,-187500.0156,-187500.0156,-167216.0156,-162259.9531,-166835.2188,-167380.2656,-187500.0156,-187500.0156,-187500.0156,-184247.6406,-181379.8594,-182566.5000,5.391968,NaN,NaN,NaN
-583.0005,-187500.0156,-187500.0156,-187500.0156,-173341.0313,-175728.0156,-167771.7188,-174073.6563,-187500.0156,-187500.0156,-187500.0156,-187500.0156,-166646.4219,-160000.8906,-166390.7188,-166314.7188,-187500.0156,-187500.0156,-187500.0156,-183216.9688,-180529.7188,-181723.1406,5.395966,NaN,NaN,NaN
-455.1039,-187500.0156,-187500.0156,-187500.0156,-173906.0469,-177289.8125,-168745.2031,-174948.4219,-187500.0156,-187500.0156,-187500.0156,-187500.0156,-167318.7656,-162323.6406,-166967.4063,-167435.4844,-187500.0156,-187500.0156,-187500.0156,-184501.3438,-181387.6406,-182365.9531,5.399963,NaN,NaN,NaN
-495.7840,-187500.0156,-187500.0156,-187500.0156,-174754.0469,-179867.1250,-170282.8438,-176368.9375,-187500.0156,-187500.0156,-187500.0156,-187500.0156,-168366.2031,-166276.7969,-167819.1875,-169314.4844,-187500.0156,-187500.0156,-187500.0156,-186448.2969,-182866.0000,-183690.3594,5.403961,NaN,NaN,NaN
-678.1743,-187500.0156,-187500.0156,-187500.0156,-174655.0313,-179722.1406,-170154.8594,-176277.8125,-187500.0156,-187500.0156,-187500.0156,-187500.0156,-168271.6563,-166133.0000,-167710.7031,-169229.4063,-187500.0156,-187500.0156,-187500.0156,-186231.0469,-182823.7031,-183789.7188,5.407959,NaN,NaN,NaN
-768.5424,-187500.0156,-187500.0156,-187500.0156,-173789.5469,-177153.1094,-168602.1094,-174859.9688,-187500.0156,-187500.0156,-187500.0156,-187500.0156,-167214.2500,-162230.4688,-166836.1563,-167374.1406,-187500.0156,-187500.0156,-187500.0156,-184229.2031,-181366.2344,-182555.5000,5.411957,NaN,NaN,NaN
-730.4774,-187500.0156,-187500.0156,-187500.0156,-173361.2656,-175757.1094,-167795.5156,-174097.6719,-187500.0156,-187500.0156,-187500.0156,-187500.0156,-166672.5469,-160041.5313,-166412.3750,-166343.6719,-187500.0156,-187500.0156,-187500.0156,-183245.4688,-180541.8281,-181732.8438,5.415955,NaN,NaN,NaN
-635.9965,-187500.0156,-187500.0156,-187500.0156,-173924.7031,-177337.7500,-168774.4844,-174975.7969,-187500.0156,-187500.0156,-187500.0156,-187500.0156,-167352.0625,-162401.9844,-166989.1406,-167471.8281,-187500.0156,-187500.0156,-187500.0156,-184560.0469,-181418.7969,-182392.1094,5.419952,NaN,NaN,NaN
-618.4280,-187500.0156,-187500.0156,-187500.0156,-174781.5625,-179929.4844,-170322.2813,-176406.7969,-187500.0156,-187500.0156,-187500.0156,-187500.0156,-168407.3594,-166370.8906,-167849.1719,-169363.9375,-187500.0156,-187500.0156,-187500.0156,-186507.9375,-182901.7969,-183722.2344,5.423950,NaN,NaN,NaN
-678.8224,-187500.0156,-187500.0156,-187500.0156,-174678.2969,-179767.7813,-170186.7500,-176309.9688,-187500.0156,-187500.0156,-187500.0156,-187500.0156,-168302.2969,-166198.4219,-167734.6406,-169269.7344,-187500.0156,-187500.0156,-187500.0156,-186261.6406,-182847.5938,-183814.1719,5.427948,NaN,NaN,NaN
-546.3884,-187500.0156,-187500.0156,-187500.0156,-173344.0156,-175700.2656,-167767.0938,-174075.0938,-187500.0156,-187500.0156,-187500.0156,-187500.0156,-166647.4219,-159951.5625,-166395.6719,-166310.1094,-187500.0156,-187500.0156,-187500.0156,-183176.5469,-180506.6875,-181709.4219,5.431946,NaN,NaN,NaN
-791.2517,-187500.0156,-187500.0156,-187500.0156,-174689.9844,-179781.7344,-170200.5000,-176324.3438,-187500.0156,-187500.0156,-187500.0156,-187500.0156,-168318.0625,-166218.0000,-167748.3125,-169285.8281,-187500.0156,-187500.0156,-187500.0156,-186278.3438,-182852.4844,-183817.0000,5.435944,NaN,NaN,NaN
-698.2908,-187500.0156,-187500.0156,-187500.0156,-173366.1094,-175762.0625,-167803.7969,-174109.5625,-187500.0156,-187500.0156,-187500.0156,-187500.0156,-166685.8281,-160053.2656,-166420.8438,-166356.4688,-187500.0156,-187500.0156,-187500.0156,-183245.4219,-180546.6719,-181744.5938,5.439941,NaN,NaN,NaN
-506.6246,-187500.0156,-187500.0156,-187500.0156,-174768.3750,-179871.9063,-170297.6719,-176388.9688,-187500.0156,-187500.0156,-187500.0156,-187500.0156,-168391.5313,-166283.2656,-167838.3906,-169334.5781,-187500.0156,-187500.0156,-187500.0156,-186447.9375,-182866.6719,-183698.1875,5.443939,NaN,NaN,NaN
-614.2036,-187500.0156,-187500.0156,-187500.0156,-174670.2500,-179732.4063,-170174.3125,-176302.3281,-187500.0156,-187500.0156,-187500.0156,-187500.0156,-168295.4219,-166147.1563,-167730.2969,-169254.5625,-187500.0156,-187500.0156,-187500.0156,-186226.0156,-182826.9219,-183801.2344,5.447937,NaN,NaN,NaN
-631.6826,-187500.0156,-187500.0156,-187500.0156,-173356.0938,-175711.5000,-167782.1719,-174092.5469,-187500.0156,-187500.0156,-187500.0156,-187500.0156,-166668.2500,-159971.1406,-166411.1719,-166329.5156,-187500.0156,-187500.0156,-187500.0156,-183189.8438,-180511.6250,-181717.0000,5.451935,NaN,NaN,NaN
-612.3260,-187500.0156,-187500.0156,-187500.0156,-173916.0625,-177277.6875,-168752.7656,-174962.7500,-187500.0156,-187500.0156,-187500.0156,-187500.0156,-167344.6875,-162310.0313,-166984.9375,-167446.9219,-187500.0156,-187500.0156,-187500.0156,-184501.2656,-181380.4063,-182366.2969,5.455933,NaN,NaN,NaN
-674.7545,-187500.0156,-187500.0156,-187500.0156,-174788.5625,-179909.7656,-170324.6719,-176415.1875,-187500.0156,-187500.0156,-187500.0156,-187500.0156,-168421.5469,-166340.3750,-167861.2188,-169367.6094,-187500.0156,-187500.0156,-187500.0156,-186491.3281,-182886.8125,-183713.5000,5.459930,NaN,NaN,NaN
-786.3790,-187500.0156,-187500.0156,-187500.0156,-174707.9375,-179812.3125,-170226.7188,-176352.6719,-187500.0156,-187500.0156,-187500.0156,-187500.0156,-168346.5313,-166265.9063,-167769.5938,-169319.1563,-187500.0156,-187500.0156,-187500.0156,-186301.4063,-182870.5469,-183837.8594,5.463928,NaN,NaN,NaN
-743.7096,-187500.0156,-187500.0156,-187500.0156,-173817.9063,-177204.1719,-168646.3438,-174909.3750,-187500.0156,-187500.0156,-187500.0156,-187500.0156,-167262.2813,-162312.9063,-166871.3906,-167431.5938,-187500.0156,-187500.0156,-187500.0156,-184262.5938,-181397.4531,-182595.2188,5.467926,NaN,NaN,NaN
-585.8168,-187500.0156,-187500.0156,-187500.0156,-173366.4688,-175731.4375,-167797.0469,-174109.2813,-187500.0156,-187500.0156,-187500.0156,-187500.0156,-166684.5313,-160000.2813,-166423.2813,-166349.7500,-187500.0156,-187500.0156,-187500.0156,-183198.5938,-180523.6406,-181732.6563,5.471924,NaN,NaN,NaN
-456.2661,-187500.0156,-187500.0156,-187500.0156,-173909.6563,-177241.7500,-168737.7188,-174952.7813,-187500.0156,-187500.0156,-187500.0156,-187500.0156,-167333.2813,-162250.5000,-166978.4844,-167430.1094,-187500.0156,-187500.0156,-187500.0156,-184450.9688,-181356.7656,-182352.3594,5.475922,NaN,NaN,NaN
-493.7724,-187500.0156,-187500.0156,-187500.0156,-174759.0938,-179831.1094,-170281.5469,-176378.0938,-187500.0156,-187500.0156,-187500.0156,-187500.0156,-168385.0781,-166224.0625,-167833.2344,-169315.5313,-187500.0156,-187500.0156,-187500.0156,-186413.1563,-182843.8750,-183681.7188,5.479919,NaN,NaN,NaN
-677.5037,-187500.0156,-187500.0156,-187500.0156,-174691.9375,-179755.3438,-170199.6250,-176330.3750,-187500.0156,-187500.0156,-187500.0156,-187500.0156,-168323.2031,-166176.4063,-167754.8906,-169285.5313,-187500.0156,-187500.0156,-187500.0156,-186240.0625,-182834.2656,-183809.3906,5.483917,NaN,NaN,NaN
-770.1293,-187500.0156,-187500.0156,-187500.0156,-173822.1563,-177189.7188,-168646.1406,-174911.6406,-187500.0156,-187500.0156,-187500.0156,-187500.0156,-167263.9063,-162286.0469,-166876.2188,-167430.0781,-187500.0156,-187500.0156,-187500.0156,-184244.8906,-181383.8594,-182584.0156,5.487915,NaN,NaN,NaN
-731.5502,-187500.0156,-187500.0156,-187500.0156,-173375.0156,-175749.7031,-167810.6406,-174122.5938,-187500.0156,-187500.0156,-187500.0156,-187500.0156,-166701.5469,-160033.1406,-166433.9688,-166365.4063,-187500.0156,-187500.0156,-187500.0156,-183229.2188,-180537.0469,-181743.1719,5.491913,NaN,NaN,NaN
-636.9130,-187500.0156,-187500.0156,-187500.0156,-173935.7031,-177298.1406,-168774.5000,-174987.7344,-187500.0156,-187500.0156,-187500.0156,-187500.0156,-167372.2188,-162335.9063,-167006.8438,-167474.6563,-187500.0156,-187500.0156,-187500.0156,-184511.5469,-181388.5156,-182378.8750,5.495911,NaN,NaN,NaN
-617.1317,-187500.0156,-187500.0156,-187500.0156,-174790.3594,-179896.4375,-170324.6875,-176419.5625,-187500.0156,-187500.0156,-187500.0156,-187500.0156,-168428.4844,-166320.8281,-167865.5938,-169368.5000,-187500.0156,-187500.0156,-187500.0156,-186473.5625,-182879.3750,-183713.0469,5.499908,NaN,NaN,NaN
-677.5037,-187500.0156,-187500.0156,-187500.0156,-174701.4531,-179787.8125,-170219.0625,-176349.6406,-187500.0156,-187500.0156,-187500.0156,-187500.0156,-168343.4688,-166231.8438,-167766.7813,-169310.8438,-187500.0156,-187500.0156,-187500.0156,-186270.6406,-182857.5313,-183832.9688,5.503906,NaN,NaN,NaN
-643.2385,-187500.0156,-187500.0156,-187500.0156,-173821.2813,-177182.5781,-168645.4531,-174913.9531,-187500.0156,-187500.0156,-187500.0156,-187500.0156,-167263.9375,-162273.9219,-166877.0156,-167431.2500,-187500.0156,-187500.0156,-187500.0156,-184223.1094,-181378.6406,-182585.6875,5.507904,NaN,NaN,NaN
-549.1153,-187500.0156,-187500.0156,-187500.0156,-173360.5000,-175693.6875,-167784.4375,-174102.2188,-187500.0156,-187500.0156,-187500.0156,-187500.0156,-166678.8594,-159943.9219,-166419.9375,-166334.6563,-187500.0156,-187500.0156,-187500.0156,-183158.8438,-180500.6719,-181718.4219,5.511902,NaN,NaN,NaN
-495.3593,-187500.0156,-187500.0156,-187500.0156,-173904.3281,-177211.8281,-168727.3281,-174946.7344,-187500.0156,-187500.0156,-187500.0156,-187500.0156,-167333.2031,-162208.2188,-166977.2656,-167417.6250,-187500.0156,-187500.0156,-187500.0156,-184429.2813,-181340.2813,-182341.4375,5.515900,NaN,NaN,NaN
-594.5787,-187500.0156,-187500.0156,-187500.0156,-174779.4844,-179849.6406,-170303.3906,-176402.2344,-187500.0156,-187500.0156,-187500.0156,-187500.0156,-168413.0156,-166246.7031,-167856.5156,-169342.1094,-187500.0156,-187500.0156,-187500.0156,-186427.7969,-182848.6250,-183687.4063,5.519897,NaN,NaN,NaN
-790.2682,-187500.0156,-187500.0156,-187500.0156,-174717.9063,-179806.1250,-170237.5625,-176368.5938,-187500.0156,-187500.0156,-187500.0156,-187500.0156,-168363.2813,-166255.4219,-167784.5000,-169332.3594,-187500.0156,-187500.0156,-187500.0156,-186287.5625,-182863.3281,-183836.8125,5.523895,NaN,NaN,NaN
-823.3712,-187500.0156,-187500.0156,-187500.0156,-173841.6719,-177236.6719,-168679.0000,-174945.2031,-187500.0156,-187500.0156,-187500.0156,-187500.0156,-167298.3750,-162362.3125,-166900.1719,-167472.2344,-187500.0156,-187500.0156,-187500.0156,-184286.1406,-181413.4375,-182614.4531,5.527893,NaN,NaN,NaN
-700.3919,-187500.0156,-187500.0156,-187500.0156,-173391.2969,-175765.9375,-167829.7813,-174145.2813,-187500.0156,-187500.0156,-187500.0156,-187500.0156,-166724.0469,-160053.4375,-166452.9844,-166391.2031,-187500.0156,-187500.0156,-187500.0156,-183228.0313,-180542.2031,-181754.9219,5.531891,NaN,NaN,NaN
-541.8510,-187500.0156,-187500.0156,-187500.0156,-173928.1094,-177257.7969,-168759.1563,-174978.4375,-187500.0156,-187500.0156,-187500.0156,-187500.0156,-167365.4375,-162274.7031,-167001.6406,-167457.5625,-187500.0156,-187500.0156,-187500.0156,-184464.9844,-181365.2031,-182366.3594,5.535889,NaN,NaN,NaN
-504.8588,-187500.0156,-187500.0156,-187500.0156,-174773.4063,-179838.4688,-170297.9531,-176399.1719,-187500.0156,-187500.0156,-187500.0156,-187500.0156,-168410.7500,-166234.1250,-167852.1875,-169336.7188,-187500.0156,-187500.0156,-187500.0156,-186414.0313,-182846.6719,-183691.1250,5.539886,NaN,NaN,NaN
-613.9354,-187500.0156,-187500.0156,-187500.0156,-174704.8281,-179763.3906,-170217.0469,-176353.0625,-187500.0156,-187500.0156,-187500.0156,-187500.0156,-168345.2656,-166187.7188,-167772.8125,-169308.6719,-187500.0156,-187500.0156,-187500.0156,-186231.7969,-182836.3438,-183819.6406,5.543884,NaN,NaN,NaN
-657.4989,-187500.0156,-187500.0156,-187500.0156,-173826.3594,-177175.8281,-168651.0625,-174923.2031,-187500.0156,-187500.0156,-187500.0156,-187500.0156,-167273.4375,-162264.6250,-166885.2031,-167438.4375,-187500.0156,-187500.0156,-187500.0156,-184212.9844,-181372.9375,-182584.7031,5.547882,NaN,NaN,NaN
-633.1355,-187500.0156,-187500.0156,-187500.0156,-173368.6875,-175702.7813,-167796.5938,-174116.7500,-187500.0156,-187500.0156,-187500.0156,-187500.0156,-166697.5156,-159961.4219,-166432.7813,-166350.5938,-187500.0156,-187500.0156,-187500.0156,-183172.0469,-180506.9219,-181726.9219,5.551880,NaN,NaN,NaN
-613.4659,-187500.0156,-187500.0156,-187500.0156,-173927.9844,-177241.3438,-168755.0313,-174976.4688,-187500.0156,-187500.0156,-187500.0156,-187500.0156,-167367.0469,-162248.7188,-167004.4531,-167452.5781,-187500.0156,-187500.0156,-187500.0156,-184453.9375,-181352.3750,-182354.6875,5.555878,NaN,NaN,NaN
-673.4357,-187500.0156,-187500.0156,-187500.0156,-174797.3906,-179878.5781,-170328.2656,-176428.7344,-187500.0156,-187500.0156,-187500.0156,-187500.0156,-168443.4375,-166292.5313,-167878.2500,-169373.3750,-187500.0156,-187500.0156,-187500.0156,-186456.5938,-182865.5625,-183705.5000,5.559875,NaN,NaN,NaN
-784.9709,-187500.0156,-187500.0156,-187500.0156,-174729.7656,-179831.7656,-170258.7031,-176391.6875,-187500.0156,-187500.0156,-187500.0156,-187500.0156,-168387.1719,-166298.1406,-167800.9531,-169359.5156,-187500.0156,-187500.0156,-187500.0156,-186308.7344,-182880.4844,-183856.8594,5.563873,NaN,NaN,NaN
-745.4753,-187500.0156,-187500.0156,-187500.0156,-173855.2969,-177246.2500,-168695.5156,-174965.8906,-187500.0156,-187500.0156,-187500.0156,-187500.0156,-167315.7500,-162371.5313,-166916.1406,-167493.5781,-187500.0156,-187500.0156,-187500.0156,-184276.6406,-181414.3906,-182622.7500,5.567871,NaN,NaN,NaN
-588.3649,-187500.0156,-187500.0156,-187500.0156,-173382.5000,-175725.7031,-167814.8594,-174136.7188,-187500.0156,-187500.0156,-187500.0156,-187500.0156,-166715.2813,-159993.0625,-166446.5469,-166374.3281,-187500.0156,-187500.0156,-187500.0156,-183181.1719,-180518.3125,-181742.1406,5.571869,NaN,NaN,NaN
-492.7218,-187500.0156,-187500.0156,-187500.0156,-174775.4531,-179806.9063,-170291.9063,-176398.7344,-187500.0156,-187500.0156,-187500.0156,-187500.0156,-168412.2344,-166180.1250,-167857.1875,-169329.0938,-187500.0156,-187500.0156,-187500.0156,-186377.7969,-182822.4844,-183673.5469,5.575867,NaN,NaN,NaN
-676.4084,-187500.0156,-187500.0156,-187500.0156,-174719.3594,-179778.5313,-170236.3281,-176374.6094,-187500.0156,-187500.0156,-187500.0156,-187500.0156,-168367.6875,-166211.0156,-167790.7188,-169331.1563,-187500.0156,-187500.0156,-187500.0156,-186246.7813,-182844.4219,-183828.7344,5.579865,NaN,NaN,NaN
-771.1128,-187500.0156,-187500.0156,-187500.0156,-173847.1875,-177221.2031,-168684.5938,-174957.4063,-187500.0156,-187500.0156,-187500.0156,-187500.0156,-167309.1563,-162338.2344,-166910.8438,-167480.1406,-187500.0156,-187500.0156,-187500.0156,-184259.3750,-181401.3906,-182612.0469,5.583862,NaN,NaN,NaN
-734.2101,-187500.0156,-187500.0156,-187500.0156,-173398.7656,-175752.8281,-167835.9063,-174157.6563,-187500.0156,-187500.0156,-187500.0156,-187500.0156,-166739.4688,-160033.6094,-166465.8906,-166400.1719,-187500.0156,-187500.0156,-187500.0156,-183211.9844,-180531.9531,-181752.8906,5.587860,NaN,NaN,NaN
-638.1870,-187500.0156,-187500.0156,-187500.0156,-173938.5000,-177250.5156,-168767.7188,-174992.5156,-187500.0156,-187500.0156,-187500.0156,-187500.0156,-167387.3125,-162264.1406,-167017.9219,-167469.6719,-187500.0156,-187500.0156,-187500.0156,-184462.3281,-181359.1250,-182366.0625,5.591858,NaN,NaN,NaN
-614.8517,-187500.0156,-187500.0156,-187500.0156,-174794.2500,-179859.7031,-170323.4219,-176428.2813,-187500.0156,-187500.0156,-187500.0156,-187500.0156,-168446.6250,-166266.4844,-167878.9375,-169368.5938,-187500.0156,-187500.0156,-187500.0156,-186437.1406,-182857.7344,-183704.7813,5.595856,NaN,NaN,NaN
-676.6096,-187500.0156,-187500.0156,-187500.0156,-174737.1406,-179820.6875,-170263.9844,-176401.9063,-187500.0156,-187500.0156,-187500.0156,-187500.0156,-168394.3438,-166274.4375,-167810.2969,-169366.1094,-187500.0156,-187500.0156,-187500.0156,-186278.5625,-182868.7500,-183853.4375,5.599854,NaN,NaN,NaN
-644.7360,-187500.0156,-187500.0156,-187500.0156,-173851.3281,-177218.4531,-168688.7031,-174964.3594,-187500.0156,-187500.0156,-187500.0156,-187500.0156,-167312.0156,-162329.9844,-166914.6406,-167485.7500,-187500.0156,-187500.0156,-187500.0156,-184239.2031,-181397.1875,-182614.8906,5.603851,NaN,NaN,NaN
-550.6352,-187500.0156,-187500.0156,-187500.0156,-173372.1250,-175686.6250,-167799.2969,-174126.4375,-187500.0156,-187500.0156,-187500.0156,-187500.0156,-166707.2656,-159937.0938,-166440.5000,-166356.2500,-187500.0156,-187500.0156,-187500.0156,-183143.6406,-180496.4844,-181729.0469,5.607849,NaN,NaN,NaN
-496.9687,-187500.0156,-187500.0156,-187500.0156,-173915.1563,-177173.9531,-168728.7813,-174959.5469,-187500.0156,-187500.0156,-187500.0156,-187500.0156,-167354.1719,-162144.4063,-166995.5938,-167421.9531,-187500.0156,-187500.0156,-187500.0156,-184382.0781,-181311.8438,-182329.8594,5.611847,NaN,NaN,NaN
-496.9687,-187500.0156,-187500.0156,-187500.0156,-173915.1563,-177173.9531,-168728.7813,-174959.5469,-187500.0156,-187500.0156,-187500.0156,-187500.0156,-167354.1719,-162144.4063,-166995.5938,-167421.9531,-187500.0156,-187500.0156,-187500.0156,-184382.0781,-181311.8438,-182329.8594,5.615845,NaN,NaN,NaN
-593.5282,-187500.0156,-187500.0156,-187500.0156,-174788.9531,-179818.8594,-170308.0000,-176416.8125,-187500.0156,-187500.0156,-187500.0156,-187500.0156,-168435.3438,-166198.3750,-167874.4219,-169348.5156,-187500.0156,-187500.0156,-187500.0156,-186393.2969,-182828.4063,-183680.6094,5.619843,NaN,NaN,NaN
-788.8601,-187500.0156,-187500.0156,-187500.0156,-174740.8281,-179826.8906,-170271.1563,-176409.2344,-187500.0156,-187500.0156,-187500.0156,-187500.0156,-168404.9063,-166288.4844,-167817.2031,-169374.1563,-187500.0156,-187500.0156,-187500.0156,-186295.0625,-182874.4063,-183857.1250,5.623840,NaN,NaN,NaN
-824.8464,-187500.0156,-187500.0156,-187500.0156,-173879.4219,-177280.2344,-168729.3750,-175003.0625,-187500.0156,-187500.0156,-187500.0156,-187500.0156,-167353.1406,-162423.7344,-166946.0938,-167535.9063,-187500.0156,-187500.0156,-187500.0156,-184301.7344,-181431.7656,-182643.4531,5.627838,NaN,NaN,NaN
-702.4930,-187500.0156,-187500.0156,-187500.0156,-173407.1094,-175761.1406,-167848.2031,-174173.3750,-187500.0156,-187500.0156,-187500.0156,-187500.0156,-166755.8594,-160048.2344,-166477.2188,-166416.8906,-187500.0156,-187500.0156,-187500.0156,-183212.1094,-180538.0313,-181765.3906,5.631836,NaN,NaN,NaN
-542.3427,-187500.0156,-187500.0156,-187500.0156,-173918.9375,-177203.4219,-168746.5156,-174976.1719,-187500.0156,-187500.0156,-187500.0156,-187500.0156,-167376.2656,-162200.7500,-167007.5156,-167446.2500,-187500.0156,-187500.0156,-187500.0156,-184417.0781,-181336.9531,-182354.6250,5.635834,NaN,NaN,NaN
-503.4730,-187500.0156,-187500.0156,-187500.0156,-174728.2500,-179776.0156,-170288.4844,-176392.4063,-187500.0156,-187500.0156,-187500.0156,-187500.0156,-168429.6875,-166178.8281,-167863.8750,-169332.6094,-187500.0156,-187500.0156,-187500.0156,-186375.7500,-182825.1094,-183682.8750,5.639832,NaN,NaN,NaN
-613.1307,-187500.0156,-187500.0156,-187500.0156,-174643.0938,-179734.6406,-170227.2813,-176359.5469,-187500.0156,-187500.0156,-187500.0156,-187500.0156,-168378.0156,-166209.0625,-167791.0938,-169329.7500,-187500.0156,-187500.0156,-187500.0156,-186236.7344,-182847.7031,-183840.0469,5.643829,NaN,NaN,NaN
-658.7506,-187500.0156,-187500.0156,-187500.0156,-173761.0313,-177157.0625,-168664.4219,-174932.6563,-187500.0156,-187500.0156,-187500.0156,-187500.0156,-167307.6719,-162305.2031,-166903.0781,-167464.8125,-187500.0156,-187500.0156,-187500.0156,-184227.4531,-181392.9844,-182615.1094,5.647827,NaN,NaN,NaN
-635.4153,-187500.0156,-187500.0156,-187500.0156,-173298.6719,-175653.7500,-167795.1250,-174113.8281,-187500.0156,-187500.0156,-187500.0156,-187500.0156,-166722.6875,-159948.2031,-166446.0156,-166359.9844,-187500.0156,-187500.0156,-187500.0156,-183153.4063,-180502.9531,-181737.7188,5.651825,NaN,NaN,NaN
-614.7400,-187500.0156,-187500.0156,-187500.0156,-173833.4688,-177137.9531,-168718.9375,-174940.5938,-187500.0156,-187500.0156,-187500.0156,-187500.0156,-167367.4375,-162158.8125,-166994.9688,-167419.5156,-187500.0156,-187500.0156,-187500.0156,-184400.4531,-181322.0156,-182341.4063,5.655823,NaN,NaN,NaN
-671.4464,-187500.0156,-187500.0156,-187500.0156,-174702.4063,-179784.5938,-170296.9219,-176396.2031,-187500.0156,-187500.0156,-187500.0156,-187500.0156,-168446.9219,-166218.0000,-167871.3594,-169344.9531,-187500.0156,-187500.0156,-187500.0156,-186413.9063,-182841.9375,-183695.5938,5.659821,NaN,NaN,NaN
-783.3616,-187500.0156,-187500.0156,-187500.0156,-174665.8438,-179807.7969,-170274.2656,-176403.1563,-187500.0156,-187500.0156,-187500.0156,-187500.0156,-168424.3438,-166321.8750,-167825.2656,-169387.3438,-187500.0156,-187500.0156,-187500.0156,-186310.3281,-182889.8750,-183875.6875,5.663818,NaN,NaN,NaN
-746.7717,-187500.0156,-187500.0156,-187500.0156,-173786.3438,-177228.1406,-168711.3438,-174977.5000,-187500.0156,-187500.0156,-187500.0156,-187500.0156,-167352.4688,-162412.4375,-166937.0313,-167523.2813,-187500.0156,-187500.0156,-187500.0156,-184288.4219,-181432.6094,-182651.8125,5.667816,NaN,NaN,NaN
-746.7717,-187500.0156,-187500.0156,-187500.0156,-173786.3438,-177228.1406,-168711.3438,-174977.5000,-187500.0156,-187500.0156,-187500.0156,-187500.0156,-167352.4688,-162412.4375,-166937.0313,-167523.2813,-187500.0156,-187500.0156,-187500.0156,-184288.4219,-181432.6094,-182651.8125,5.671814,NaN,NaN,NaN
-589.7284,-187500.0156,-187500.0156,-187500.0156,-173293.8125,-175663.8906,-167801.8906,-174121.5781,-187500.0156,-187500.0156,-187500.0156,-187500.0156,-166731.5313,-159970.0938,-166449.5000,-166370.1094,-187500.0156,-187500.0156,-187500.0156,-183161.5625,-180514.0469,-181752.9063,5.675812,NaN,NaN,NaN
-458.4566,-187500.0156,-187500.0156,-187500.0156,-173815.1875,-177096.3125,-168698.8438,-174924.9063,-187500.0156,-187500.0156,-187500.0156,-187500.0156,-167351.3750,-162094.1563,-166984.0000,-167396.3906,-187500.0156,-187500.0156,-187500.0156,-184349.1563,-181297.0469,-182326.5000,5.679810,NaN,NaN,NaN
-491.2019,-187500.0156,-187500.0156,-187500.0156,-174678.7500,-179715.9063,-170264.4219,-176369.6250,-187500.0156,-187500.0156,-187500.0156,-187500.0156,-168418.4375,-166109.2031,-167853.2813,-169305.2031,-187500.0156,-187500.0156,-187500.0156,-186334.9063,-182798.0781,-183663.1563,5.683807,NaN,NaN,NaN
-674.9332,-187500.0156,-187500.0156,-187500.0156,-174636.4375,-179742.1875,-170239.8906,-176373.3906,-187500.0156,-187500.0156,-187500.0156,-187500.0156,-168394.4375,-166225.7813,-167803.0156,-169344.8281,-187500.0156,-187500.0156,-187500.0156,-186248.3906,-182853.0469,-183846.7500,5.687805,NaN,NaN,NaN
-772.4986,-187500.0156,-187500.0156,-187500.0156,-173779.8594,-177209.9844,-168706.9219,-174975.3750,-187500.0156,-187500.0156,-187500.0156,-187500.0156,-167350.4375,-162383.8281,-166937.8906,-167517.5156,-187500.0156,-187500.0156,-187500.0156,-184270.5469,-181418.6875,-182640.2500,5.691803,NaN,NaN,NaN
-735.9535,-187500.0156,-187500.0156,-187500.0156,-173308.2500,-175692.0625,-167825.5938,-174145.2969,-187500.0156,-187500.0156,-187500.0156,-187500.0156,-166756.9531,-160011.0781,-166470.3594,-166398.6563,-187500.0156,-187500.0156,-187500.0156,-183191.0313,-180526.5000,-181762.6406,5.695801,NaN,NaN,NaN
-638.4999,-187500.0156,-187500.0156,-187500.0156,-173829.0469,-177144.1406,-168728.5938,-174952.8594,-187500.0156,-187500.0156,-187500.0156,-187500.0156,-167384.7500,-162173.7031,-167005.6094,-167433.1094,-187500.0156,-187500.0156,-187500.0156,-184409.4688,-181329.2344,-182353.3281,5.699799,NaN,NaN,NaN
-675.8273,-187500.0156,-187500.0156,-187500.0156,-174654.4844,-179785.8906,-170271.0000,-176404.6250,-187500.0156,-187500.0156,-187500.0156,-187500.0156,-168424.6563,-166289.8594,-167826.6406,-169384.3125,-187500.0156,-187500.0156,-187500.0156,-186279.2969,-182876.9844,-183871.4063,5.703796,NaN,NaN,NaN
-645.6301,-187500.0156,-187500.0156,-187500.0156,-173766.6719,-177192.1250,-168698.2031,-174969.5000,-187500.0156,-187500.0156,-187500.0156,-187500.0156,-167343.8594,-162362.0000,-166931.0313,-167508.5313,-187500.0156,-187500.0156,-187500.0156,-184247.9219,-181413.0938,-182641.8438,5.707794,NaN,NaN,NaN
-553.1386,-187500.0156,-187500.0156,-187500.0156,-173286.3438,-175634.3438,-167797.2188,-174122.2500,-187500.0156,-187500.0156,-187500.0156,-187500.0156,-166732.5469,-159921.2656,-166454.4219,-166365.3438,-187500.0156,-187500.0156,-187500.0156,-183122.6719,-180491.5000,-181739.1875,5.711792,NaN,NaN,NaN
-498.4662,-187500.0156,-187500.0156,-187500.0156,-173806.5781,-177071.0000,-168694.1250,-174924.3438,-187500.0156,-187500.0156,-187500.0156,-187500.0156,-167355.7031,-162057.5469,-166987.6875,-167390.6875,-187500.0156,-187500.0156,-187500.0156,-184329.5938,-181282.3125,-182317.5000,5.715790,NaN,NaN,NaN
-591.4719,-187500.0156,-187500.0156,-187500.0156,-174679.0938,-179723.2344,-170276.4063,-176383.3594,-187500.0156,-187500.0156,-187500.0156,-187500.0156,-168438.3594,-166124.5000,-167867.2500,-169320.0313,-187500.0156,-187500.0156,-187500.0156,-186351.2188,-182804.2656,-183670.3594,5.719788,NaN,NaN,NaN
-787.8319,-187500.0156,-187500.0156,-187500.0156,-174662.4219,-179800.9375,-170286.0156,-176419.6094,-187500.0156,-187500.0156,-187500.0156,-187500.0156,-168441.3281,-166311.4063,-167841.0469,-169401.5000,-187500.0156,-187500.0156,-187500.0156,-186297.1719,-182882.7500,-183875.0313,5.723785,NaN,NaN,NaN
-826.6122,-187500.0156,-187500.0156,-187500.0156,-173796.8594,-177260.6563,-168745.2188,-175014.0625,-187500.0156,-187500.0156,-187500.0156,-187500.0156,-167389.2344,-162463.8438,-166966.7813,-167565.5625,-187500.0156,-187500.0156,-187500.0156,-184313.3281,-181449.2344,-182671.8438,5.727783,NaN,NaN,NaN
-826.6122,-187500.0156,-187500.0156,-187500.0156,-173796.8594,-177260.6563,-168745.2188,-175014.0625,-187500.0156,-187500.0156,-187500.0156,-187500.0156,-167389.2344,-162463.8438,-166966.7813,-167565.5625,-187500.0156,-187500.0156,-187500.0156,-184313.3281,-181449.2344,-182671.8438,5.731781,NaN,NaN,NaN
-704.3928,-187500.0156,-187500.0156,-187500.0156,-173305.2656,-175698.1875,-167835.4688,-174157.8594,-187500.0156,-187500.0156,-187500.0156,-187500.0156,-166771.9688,-160025.7031,-166480.3281,-166413.2969,-187500.0156,-187500.0156,-187500.0156,-183192.3438,-180533.2188,-181775.9531,5.735779,NaN,NaN,NaN
-704.3928,-187500.0156,-187500.0156,-187500.0156,-173305.2656,-175698.1875,-167835.4688,-174157.8594,-187500.0156,-187500.0156,-187500.0156,-187500.0156,-166771.9688,-160025.7031,-166480.3281,-166413.2969,-187500.0156,-187500.0156,-187500.0156,-183192.3438,-180533.2188,-181775.9531,5.739777,NaN,NaN,NaN
-543.7285,-187500.0156,-187500.0156,-187500.0156,-173820.7500,-177111.3906,-168720.6094,-174950.5000,-187500.0156,-187500.0156,-187500.0156,-187500.0156,-167384.0781,-162119.1250,-167007.9219,-167424.8906,-187500.0156,-187500.0156,-187500.0156,-184364.0469,-181306.1406,-182341.3281,5.743774,NaN,NaN,NaN
-502.4672,-187500.0156,-187500.0156,-187500.0156,-174681.2031,-179722.3281,-170281.4844,-176390.9375,-187500.0156,-187500.0156,-187500.0156,-187500.0156,-168444.8438,-166119.3438,-167873.3125,-169327.3281,-187500.0156,-187500.0156,-187500.0156,-186336.5781,-182801.4375,-183673.1719,5.747772,NaN,NaN,NaN
-502.4672,-187500.0156,-187500.0156,-187500.0156,-174681.2031,-179722.3281,-170281.4844,-176390.9375,-187500.0156,-187500.0156,-187500.0156,-187500.0156,-168444.8438,-166119.3438,-167873.3125,-169327.3281,-187500.0156,-187500.0156,-187500.0156,-186336.5781,-182801.4375,-183673.1719,5.751770,NaN,NaN,NaN
-611.7225,-187500.0156,-187500.0156,-187500.0156,-174637.7656,-179750.4375,-170258.5781,-176396.5469,-187500.0156,-187500.0156,-187500.0156,-187500.0156,-168417.1719,-166238.9063,-167821.7344,-169369.0781,-187500.0156,-187500.0156,-187500.0156,-186242.1563,-182856.5938,-183858.4844,5.755768,NaN,NaN,NaN
-611.7225,-187500.0156,-187500.0156,-187500.0156,-174637.7656,-179750.4375,-170258.5781,-176396.5469,-187500.0156,-187500.0156,-187500.0156,-187500.0156,-168417.1719,-166238.9063,-167821.7344,-169369.0781,-187500.0156,-187500.0156,-187500.0156,-186242.1563,-182856.5938,-183858.4844,5.759766,NaN,NaN,NaN
-660.5388,-187500.0156,-187500.0156,-187500.0156,-173773.6250,-177198.2031,-168714.2500,-174988.5313,-187500.0156,-187500.0156,-187500.0156,-187500.0156,-167361.2969,-162366.5469,-166948.4844,-167528.2188,-187500.0156,-187500.0156,-187500.0156,-184241.2031,-181410.0781,-182643.3125,5.763763,NaN,NaN,NaN
-638.0529,-187500.0156,-187500.0156,-187500.0156,-173291.3750,-175647.0625,-167813.5625,-174140.7813,-187500.0156,-187500.0156,-187500.0156,-187500.0156,-166753.9531,-159943.5938,-166470.5625,-166386.4844,-187500.0156,-187500.0156,-187500.0156,-183135.3438,-180498.1250,-181748.3594,5.767761,NaN,NaN,NaN
-615.3658,-187500.0156,-187500.0156,-187500.0156,-173809.3281,-177086.2500,-168709.0781,-174940.8906,-187500.0156,-187500.0156,-187500.0156,-187500.0156,-167378.7813,-162086.3438,-167002.6250,-167410.5156,-187500.0156,-187500.0156,-187500.0156,-184351.6563,-181293.5781,-182330.2188,5.771759,NaN,NaN,NaN
-615.3658,-187500.0156,-187500.0156,-187500.0156,-173809.3281,-177086.2500,-168709.0781,-174940.8906,-187500.0156,-187500.0156,-187500.0156,-187500.0156,-167378.7813,-162086.3438,-167002.6250,-167410.5156,-187500.0156,-187500.0156,-187500.0156,-184351.6563,-181293.5781,-182330.2188,5.775757,NaN,NaN,NaN
-670.0159,-187500.0156,-187500.0156,-187500.0156,-174697.1094,-179758.4375,-170307.7031,-176415.9844,-187500.0156,-187500.0156,-187500.0156,-187500.0156,-168473.8750,-166174.4844,-167895.5469,-169358.9219,-187500.0156,-187500.0156,-187500.0156,-186378.1875,-182821.1719,-183688.4688,5.779755,NaN,NaN,NaN
-783.0039,-187500.0156,-187500.0156,-187500.0156,-174672.1094,-179829.2500,-170311.1719,-176446.2813,-187500.0156,-187500.0156,-187500.0156,-187500.0156,-168468.0938,-166356.2656,-167860.9531,-169432.9063,-187500.0156,-187500.0156,-187500.0156,-186316.7188,-182900.2344,-183895.6563,5.783752,NaN,NaN,NaN
-748.0458,-187500.0156,-187500.0156,-187500.0156,-173790.8594,-177257.8906,-168750.2344,-175022.4063,-187500.0156,-187500.0156,-187500.0156,-187500.0156,-167396.9844,-162464.2344,-166971.6094,-167573.2500,-187500.0156,-187500.0156,-187500.0156,-184302.2344,-181450.5781,-182680.7344,5.787750,NaN,NaN,NaN
-748.0458,-187500.0156,-187500.0156,-187500.0156,-173790.8594,-177257.8906,-168750.2344,-175022.4063,-187500.0156,-187500.0156,-187500.0156,-187500.0156,-167396.9844,-162464.2344,-166971.6094,-167573.2500,-187500.0156,-187500.0156,-187500.0156,-184302.2344,-181450.5781,-182680.7344,5.791748,NaN,NaN,NaN
-592.0083,-187500.0156,-187500.0156,-187500.0156,-173297.0313,-175665.2188,-167827.3750,-174155.6875,-187500.0156,-187500.0156,-187500.0156,-187500.0156,-166768.7500,-159971.4063,-166481.1094,-166405.0938,-187500.0156,-187500.0156,-187500.0156,-183143.2344,-180509.3906,-181763.5000,5.795746,NaN,NaN,NaN
-459.5295,-187500.0156,-187500.0156,-187500.0156,-173798.3281,-177047.9531,-168692.6719,-174929.0781,-187500.0156,-187500.0156,-187500.0156,-187500.0156,-167366.0938,-162023.7656,-166995.1719,-167392.0313,-187500.0156,-187500.0156,-187500.0156,-184299.3125,-181268.3125,-182315.0156,5.799744,NaN,NaN,NaN
-489.6820,-187500.0156,-187500.0156,-187500.0156,-174662.8438,-179677.0469,-170262.7500,-176376.7344,-187500.0156,-187500.0156,-187500.0156,-187500.0156,-168435.8281,-166054.1875,-167866.5313,-169305.1875,-187500.0156,-187500.0156,-187500.0156,-186296.9375,-182775.8125,-183654.6406,5.803741,NaN,NaN,NaN
-674.1509,-187500.0156,-187500.0156,-187500.0156,-174652.1719,-179771.5156,-170283.3594,-176423.2344,-187500.0156,-187500.0156,-187500.0156,-187500.0156,-168444.1250,-166265.7188,-167846.2344,-169399.3125,-187500.0156,-187500.0156,-187500.0156,-186253.5938,-182862.6719,-183866.0000,5.807739,NaN,NaN,NaN
-774.0186,-187500.0156,-187500.0156,-187500.0156,-173791.1563,-177243.7188,-168749.9844,-175024.4531,-187500.0156,-187500.0156,-187500.0156,-187500.0156,-167398.6250,-162438.7031,-166976.7188,-167572.6563,-187500.0156,-187500.0156,-187500.0156,-184283.5781,-181436.2500,-182668.9063,5.811737,NaN,NaN,NaN
-737.2499,-187500.0156,-187500.0156,-187500.0156,-173301.4219,-175683.5938,-167840.7188,-174168.5156,-187500.0156,-187500.0156,-187500.0156,-187500.0156,-166785.7188,-160005.2969,-166492.1094,-166421.5625,-187500.0156,-187500.0156,-187500.0156,-183173.0156,-180522.1875,-181773.5000,5.815735,NaN,NaN,NaN
-640.0645,-187500.0156,-187500.0156,-187500.0156,-173821.0156,-177104.0781,-168729.5313,-174964.0000,-187500.0156,-187500.0156,-187500.0156,-187500.0156,-167405.0156,-162109.8438,-167023.8906,-167437.3750,-187500.0156,-187500.0156,-187500.0156,-184359.3438,-181300.2188,-182341.7031,5.819733,NaN,NaN,NaN
-612.9072,-187500.0156,-187500.0156,-187500.0156,-174692.0938,-179743.2500,-170307.1719,-176419.5469,-187500.0156,-187500.0156,-187500.0156,-187500.0156,-168480.1719,-166152.6250,-167899.8594,-169359.4531,-187500.0156,-187500.0156,-187500.0156,-186358.4688,-182812.8281,-183687.8438,5.823730,NaN,NaN,NaN
-647.3289,-187500.0156,-187500.0156,-187500.0156,-173787.4375,-177235.6094,-168749.4219,-175026.8750,-187500.0156,-187500.0156,-187500.0156,-187500.0156,-167398.2188,-162425.2969,-166977.2188,-167572.9375,-187500.0156,-187500.0156,-187500.0156,-184262.3438,-181431.6563,-182671.3750,5.827728,NaN,NaN,NaN
-498.8015,-187500.0156,-187500.0156,-187500.0156,-173786.2813,-177018.3438,-168682.7813,-174923.1094,-187500.0156,-187500.0156,-187500.0156,-187500.0156,-167366.0938,-161983.5938,-166994.4375,-167380.8594,-187500.0156,-187500.0156,-187500.0156,-184278.3281,-181252.4063,-182304.8281,5.831726,NaN,NaN,NaN
-590.0637,-187500.0156,-187500.0156,-187500.0156,-174677.8906,-179696.8906,-170286.1094,-176402.3281,-187500.0156,-187500.0156,-187500.0156,-187500.0156,-168465.0625,-166079.9219,-167891.3750,-169333.8438,-187500.0156,-187500.0156,-187500.0156,-186313.5781,-182782.2500,-183662.2031,5.835724,NaN,NaN,NaN
-786.9602,-187500.0156,-187500.0156,-187500.0156,-174671.6563,-179820.4688,-170321.0000,-176461.2031,-187500.0156,-187500.0156,-187500.0156,-187500.0156,-168483.8281,-166342.9531,-167875.6094,-169445.4219,-187500.0156,-187500.0156,-187500.0156,-186301.2031,-182891.8750,-183893.8281,5.839722,NaN,NaN,NaN
-827.3275,-187500.0156,-187500.0156,-187500.0156,-173804.9063,-177289.5000,-168783.2031,-175058.3594,-187500.0156,-187500.0156,-187500.0156,-187500.0156,-167433.0938,-162513.6250,-167000.8438,-167614.2969,-187500.0156,-187500.0156,-187500.0156,-184325.5938,-181466.4688,-182700.0469,5.843719,NaN,NaN,NaN
-706.0469,-187500.0156,-187500.0156,-187500.0156,-173312.8281,-175701.2188,-167861.5938,-174192.7656,-187500.0156,-187500.0156,-187500.0156,-187500.0156,-166808.9375,-160027.6719,-166511.7969,-166448.3594,-187500.0156,-187500.0156,-187500.0156,-183174.3750,-180529.1250,-181786.9375,5.847717,NaN,NaN,NaN
-545.0249,-187500.0156,-187500.0156,-187500.0156,-173807.7813,-177065.6875,-168715.5000,-174955.8438,-187500.0156,-187500.0156,-187500.0156,-187500.0156,-167398.5156,-162051.9063,-167018.7500,-167421.1250,-187500.0156,-187500.0156,-187500.0156,-184315.6563,-181278.2813,-182330.5938,5.851715,NaN,NaN,NaN
-501.1484,-187500.0156,-187500.0156,-187500.0156,-174667.9688,-179684.4531,-170279.6250,-176398.3594,-187500.0156,-187500.0156,-187500.0156,-187500.0156,-168461.4219,-166065.8750,-167885.3281,-169326.7969,-187500.0156,-187500.0156,-187500.0156,-186299.5938,-182779.8906,-183665.5000,5.855713,NaN,NaN,NaN
-611.3202,-187500.0156,-187500.0156,-187500.0156,-174655.5625,-179777.9375,-170300.5469,-176445.4219,-187500.0156,-187500.0156,-187500.0156,-187500.0156,-168465.0938,-166275.6563,-167862.8906,-169420.8281,-187500.0156,-187500.0156,-187500.0156,-186246.5781,-182866.1563,-183877.6875,5.859711,NaN,NaN,NaN
-662.0810,-187500.0156,-187500.0156,-187500.0156,-173787.2031,-177230.9063,-168756.3125,-175037.1719,-187500.0156,-187500.0156,-187500.0156,-187500.0156,-167408.2188,-162418.8281,-166985.9375,-167581.5000,-187500.0156,-187500.0156,-187500.0156,-184253.6094,-181427.5156,-182671.6875,5.863708,NaN,NaN,NaN
-639.1705,-187500.0156,-187500.0156,-187500.0156,-173286.7188,-175638.3750,-167828.0938,-174163.9375,-187500.0156,-187500.0156,-187500.0156,-187500.0156,-166781.1719,-159936.2500,-166490.5781,-166407.5000,-187500.0156,-187500.0156,-187500.0156,-183117.5938,-180494.0625,-181759.4219,5.867706,NaN,NaN,NaN
-616.3270,-187500.0156,-187500.0156,-187500.0156,-173803.7344,-177046.7031,-168709.8438,-174952.4219,-187500.0156,-187500.0156,-187500.0156,-187500.0156,-167398.7188,-162022.5156,-167020.4375,-167414.5313,-187500.0156,-187500.0156,-187500.0156,-184301.7656,-181264.5781,-182318.4531,5.871704,NaN,NaN,NaN
-668.6747,-187500.0156,-187500.0156,-187500.0156,-174688.2188,-179721.7500,-170308.3438,-176426.3125,-187500.0156,-187500.0156,-187500.0156,-187500.0156,-168493.0781,-166120.0313,-167910.9688,-169361.8281,-187500.0156,-187500.0156,-187500.0156,-186338.7344,-182797.2969,-183678.6094,5.875702,NaN,NaN,NaN
-780.7911,-187500.0156,-187500.0156,-187500.0156,-174677.0938,-179846.1719,-170341.7500,-176483.5313,-187500.0156,-187500.0156,-187500.0156,-187500.0156,-168506.7969,-166386.6875,-167891.1406,-169472.0625,-187500.0156,-187500.0156,-187500.0156,-186321.7500,-182909.1250,-183913.7656,5.879700,NaN,NaN,NaN
-749.2528,-187500.0156,-187500.0156,-187500.0156,-173814.1563,-177306.2500,-168803.3906,-175081.9688,-187500.0156,-187500.0156,-187500.0156,-187500.0156,-167452.3750,-162535.0625,-167018.3281,-167640.5781,-187500.0156,-187500.0156,-187500.0156,-184320.4375,-181471.2656,-182711.7813,5.883698,NaN,NaN,NaN
-594.4222,-187500.0156,-187500.0156,-187500.0156,-173300.0000,-175668.0938,-167850.5781,-174187.4531,-187500.0156,-187500.0156,-187500.0156,-187500.0156,-166802.2344,-159979.2344,-166507.0313,-166436.5781,-187500.0156,-187500.0156,-187500.0156,-183131.3438,-180509.3750,-181778.3906,5.887695,NaN,NaN,NaN
-460.8706,-187500.0156,-187500.0156,-187500.0156,-173780.4531,-176996.4688,-168681.9688,-174929.0313,-187500.0156,-187500.0156,-187500.0156,-187500.0156,-167376.0469,-161950.7813,-167001.0938,-167381.8125,-187500.0156,-187500.0156,-187500.0156,-184249.6094,-181239.6875,-182304.0156,5.891693,NaN,NaN,NaN
-488.6762,-187500.0156,-187500.0156,-187500.0156,-174660.3281,-179643.1094,-170267.4844,-176391.7813,-187500.0156,-187500.0156,-187500.0156,-187500.0156,-168458.5938,-165998.0625,-167886.7656,-169312.5625,-187500.0156,-187500.0156,-187500.0156,-186254.1563,-182749.8438,-183643.0938,5.895691,NaN,NaN,NaN
-775.0691,-187500.0156,-187500.0156,-187500.0156,-173802.4375,-177277.6875,-168790.8906,-175071.5938,-187500.0156,-187500.0156,-187500.0156,-187500.0156,-167444.3125,-162496.1250,-167011.9219,-167624.5469,-187500.0156,-187500.0156,-187500.0156,-184301.1250,-181456.6250,-182699.4219,5.899689,NaN,NaN,NaN
-739.9098,-187500.0156,-187500.0156,-187500.0156,-173313.0000,-175694.3125,-167871.3906,-174207.8750,-187500.0156,-187500.0156,-187500.0156,-187500.0156,-166825.7500,-160019.0000,-166525.8594,-166461.9531,-187500.0156,-187500.0156,-187500.0156,-183161.8750,-180522.7656,-181788.8281,5.903687,NaN,NaN,NaN
-641.4951,-187500.0156,-187500.0156,-187500.0156,-173808.4375,-177057.2969,-168723.5000,-174968.6875,-187500.0156,-187500.0156,-187500.0156,-187500.0156,-167419.0938,-162042.1250,-167034.1094,-167433.2500,-187500.0156,-187500.0156,-187500.0156,-184310.4063,-181272.0781,-182331.0469,5.907684,NaN,NaN,NaN
-610.9178,-187500.0156,-187500.0156,-187500.0156,-174677.2031,-179697.0156,-170300.1875,-176422.2500,-187500.0156,-187500.0156,-187500.0156,-187500.0156,-168493.4063,-166086.3906,-167909.1406,-169353.2188,-187500.0156,-187500.0156,-187500.0156,-186314.3281,-182786.0625,-183675.4375,5.911682,NaN,NaN,NaN
-648.6700,-187500.0156,-187500.0156,-187500.0156,-173803.9844,-177274.6719,-168794.9219,-175078.6406,-187500.0156,-187500.0156,-187500.0156,-187500.0156,-167447.5000,-162487.6563,-167016.5938,-167630.9531,-187500.0156,-187500.0156,-187500.0156,-184279.5313,-181451.9844,-182701.8594,5.915680,NaN,NaN,NaN
-557.5195,-187500.0156,-187500.0156,-187500.0156,-173284.2188,-175628.4688,-167835.0781,-174177.0625,-187500.0156,-187500.0156,-187500.0156,-187500.0156,-166794.0938,-159923.1875,-166501.3281,-166418.9844,-187500.0156,-187500.0156,-187500.0156,-183092.7188,-180487.8438,-181765.2813,5.919678,NaN,NaN,NaN
-501.1484,-187500.0156,-187500.0156,-187500.0156,-173781.6563,-176978.6875,-168683.2656,-174934.4688,-187500.0156,-187500.0156,-187500.0156,-187500.0156,-167385.0938,-161919.5625,-167011.0938,-167384.0938,-187500.0156,-187500.0156,-187500.0156,-184228.0625,-181223.8906,-182293.8750,5.923676,NaN,NaN,NaN
-785.0380,-187500.0156,-187500.0156,-187500.0156,-174677.0000,-179832.0469,-170349.2813,-176495.8906,-187500.0156,-187500.0156,-187500.0156,-187500.0156,-168520.6406,-166364.1875,-167904.4688,-169480.5938,-187500.0156,-187500.0156,-187500.0156,-186302.1875,-182898.2656,-183909.6719,5.927673,NaN,NaN,NaN
-829.0038,-187500.0156,-187500.0156,-187500.0156,-173830.2969,-177338.4375,-168837.1875,-175118.4531,-187500.0156,-187500.0156,-187500.0156,-187500.0156,-167488.9688,-162584.5313,-167048.0156,-167681.9531,-187500.0156,-187500.0156,-187500.0156,-184344.6250,-181487.8594,-182731.7656,5.931671,NaN,NaN,NaN
-709.0867,-187500.0156,-187500.0156,-187500.0156,-173316.8125,-175703.7500,-167884.6406,-174224.3125,-187500.0156,-187500.0156,-187500.0156,-187500.0156,-166842.5313,-160035.5156,-166537.7500,-166479.9219,-187500.0156,-187500.0156,-187500.0156,-183162.2969,-180529.2031,-181802.0938,5.935669,NaN,NaN,NaN
-546.2543,-187500.0156,-187500.0156,-187500.0156,-173789.3438,-177011.6563,-168702.9375,-174953.8281,-187500.0156,-187500.0156,-187500.0156,-187500.0156,-167407.5938,-161976.2031,-167023.7813,-167409.7031,-187500.0156,-187500.0156,-187500.0156,-184263.6875,-181248.2500,-182318.2969,5.939667,NaN,NaN,NaN
-499.8744,-187500.0156,-187500.0156,-187500.0156,-174665.2656,-179647.4531,-170282.7188,-176411.2969,-187500.0156,-187500.0156,-187500.0156,-187500.0156,-168482.9219,-166005.2656,-167904.7813,-169332.3906,-187500.0156,-187500.0156,-187500.0156,-186253.7500,-182751.8125,-183652.1406,5.943665,NaN,NaN,NaN
-609.8896,-187500.0156,-187500.0156,-187500.0156,-174665.5625,-179793.1094,-170332.8906,-176484.3125,-187500.0156,-187500.0156,-187500.0156,-187500.0156,-168505.4531,-166300.9688,-167895.5938,-169461.5156,-187500.0156,-187500.0156,-187500.0156,-186247.2969,-182871.7031,-183892.8750,5.947662,NaN,NaN,NaN
-662.8633,-187500.0156,-187500.0156,-187500.0156,-173800.2500,-177267.1250,-168798.7344,-175085.3281,-187500.0156,-187500.0156,-187500.0156,-187500.0156,-167454.6563,-162479.8750,-167021.9688,-167635.3125,-187500.0156,-187500.0156,-187500.0156,-184271.9531,-181448.3281,-182702.7344,5.951660,NaN,NaN,NaN
-641.7409,-187500.0156,-187500.0156,-187500.0156,-173299.7031,-175649.5625,-167859.2188,-174203.2344,-187500.0156,-187500.0156,-187500.0156,-187500.0156,-166821.6563,-159950.4688,-166524.8281,-166448.5000,-187500.0156,-187500.0156,-187500.0156,-183105.9063,-180494.5156,-181774.7344,5.955658,NaN,NaN,NaN
-666.9760,-187500.0156,-187500.0156,-187500.0156,-174674.4219,-179674.4219,-170301.2656,-176428.6094,-187500.0156,-187500.0156,-187500.0156,-187500.0156,-168505.7344,-166051.5781,-167919.6719,-169354.4844,-187500.0156,-187500.0156,-187500.0156,-186294.8281,-182770.6563,-183666.4531,5.959656,NaN,NaN,NaN
-779.9865,-187500.0156,-187500.0156,-187500.0156,-174696.1094,-179869.0781,-170381.6719,-176530.0938,-187500.0156,-187500.0156,-187500.0156,-187500.0156,-168553.5781,-166416.1094,-167931.4844,-169521.1406,-187500.0156,-187500.0156,-187500.0156,-186322.8438,-182915.5000,-183929.8906,5.963654,NaN,NaN,NaN
-750.9962,-187500.0156,-187500.0156,-187500.0156,-173830.9375,-177339.6719,-168846.5469,-175131.4375,-187500.0156,-187500.0156,-187500.0156,-187500.0156,-167500.1406,-162588.1719,-167056.6406,-167694.7813,-187500.0156,-187500.0156,-187500.0156,-184334.0469,-181488.9219,-182740.1875,5.967651,NaN,NaN,NaN
-596.5904,-187500.0156,-187500.0156,-187500.0156,-173299.2656,-175661.5938,-167867.2500,-174212.3750,-187500.0156,-187500.0156,-187500.0156,-187500.0156,-166831.4063,-159974.6094,-166528.9688,-166459.8906,-187500.0156,-187500.0156,-187500.0156,-183115.7813,-180507.0781,-181791.0156,5.971649,NaN,NaN,NaN
-462.8823,-187500.0156,-187500.0156,-187500.0156,-173777.4063,-176958.0156,-168683.6719,-174941.0469,-187500.0156,-187500.0156,-187500.0156,-187500.0156,-167396.1406,-161888.0938,-167019.1094,-167386.4219,-187500.0156,-187500.0156,-187500.0156,-184200.9844,-181211.7031,-182293.1563,5.975647,NaN,NaN,NaN
-487.6480,-187500.0156,-187500.0156,-187500.0156,-174653.4219,-179605.0156,-170267.8125,-176401.3438,-187500.0156,-187500.0156,-187500.0156,-187500.0156,-168476.4531,-165940.7500,-167900.8906,-169313.7656,-187500.0156,-187500.0156,-187500.0156,-186214.3594,-182726.1094,-183633.4063,5.979645,NaN,NaN,NaN
-671.2005,-187500.0156,-187500.0156,-187500.0156,-174668.9531,-179802.6406,-170346.4219,-176499.6094,-187500.0156,-187500.0156,-187500.0156,-187500.0156,-168522.9219,-166318.2344,-167908.6875,-169477.7188,-187500.0156,-187500.0156,-187500.0156,-186259.8125,-182878.2344,-183900.5156,5.983643,NaN,NaN,NaN
-776.2090,-187500.0156,-187500.0156,-187500.0156,-173828.0781,-177324.2500,-168843.4219,-175130.5781,-187500.0156,-187500.0156,-187500.0156,-187500.0156,-167498.9219,-162562.3125,-167058.4219,-167690.4219,-187500.0156,-187500.0156,-187500.0156,-184317.3125,-181476.4688,-182730.0156,5.987640,NaN,NaN,NaN
-742.7932,-187500.0156,-187500.0156,-187500.0156,-173316.8125,-175691.7656,-167891.5625,-174236.7813,-187500.0156,-187500.0156,-187500.0156,-187500.0156,-166857.0781,-160017.4219,-166550.5156,-166489.4688,-187500.0156,-187500.0156,-187500.0156,-183145.2969,-180519.9688,-181801.3281,5.991638,NaN,NaN,NaN
-642.4785,-187500.0156,-187500.0156,-187500.0156,-173792.6563,-177004.3906,-168712.0781,-174967.7969,-187500.0156,-187500.0156,-187500.0156,-187500.0156,-167428.3906,-161964.8281,-167039.8281,-167421.6406,-187500.0156,-187500.0156,-187500.0156,-184259.1094,-181242.5938,-182319.1719,5.995636,NaN,NaN,NaN
-609.8673,-187500.0156,-187500.0156,-187500.0156,-174677.9219,-179666.0156,-170306.8906,-176438.5625,-187500.0156,-187500.0156,-187500.0156,-187500.0156,-168516.9219,-166032.8594,-167930.5781,-169362.2656,-187500.0156,-187500.0156,-187500.0156,-186273.4688,-182761.4531,-183664.9688,5.999634,NaN,NaN,NaN
-672.2734,-187500.0156,-187500.0156,-187500.0156,-174688.6406,-179846.0625,-170377.2813,-176530.4063,-187500.0156,-187500.0156,-187500.0156,-187500.0156,-168552.2656,-166381.1563,-167931.7344,-169516.2031,-187500.0156,-187500.0156,-187500.0156,-186289.7344,-182901.4844,-183924.5000,6.003632,NaN,NaN,NaN
-649.8546,-187500.0156,-187500.0156,-187500.0156,-173816.9219,-177308.8125,-168835.8594,-175125.6250,-187500.0156,-187500.0156,-187500.0156,-187500.0156,-167492.4063,-162543.9375,-167051.5938,-167682.4844,-187500.0156,-187500.0156,-187500.0156,-184296.0313,-181471.8906,-182732.3281,6.007629,NaN,NaN,NaN
-559.5535,-187500.0156,-187500.0156,-187500.0156,-173295.7344,-175634.4531,-167862.7500,-174213.3125,-187500.0156,-187500.0156,-187500.0156,-187500.0156,-166831.4688,-159928.0938,-166533.1406,-166455.4219,-187500.0156,-187500.0156,-187500.0156,-183076.6250,-180485.0625,-181777.7188,6.011627,NaN,NaN,NaN
-502.2437,-187500.0156,-187500.0156,-187500.0156,-173770.4375,-176929.8125,-168676.1094,-174937.8906,-187500.0156,-187500.0156,-187500.0156,-187500.0156,-167397.7813,-161846.4688,-167020.4375,-167377.8438,-187500.0156,-187500.0156,-187500.0156,-184177.1094,-181194.3281,-182281.7500,6.015625,NaN,NaN,NaN
-587.1580,-187500.0156,-187500.0156,-187500.0156,-174656.2813,-179611.1094,-170278.5781,-176413.8438,-187500.0156,-187500.0156,-187500.0156,-187500.0156,-168494.9531,-165953.3594,-167913.7031,-169326.8438,-187500.0156,-187500.0156,-187500.0156,-186228.3750,-182731.0938,-183639.5156,6.019623,NaN,NaN,NaN
-783.5627,-187500.0156,-187500.0156,-187500.0156,-174697.1563,-179860.0313,-170391.1875,-176544.4844,-187500.0156,-187500.0156,-187500.0156,-187500.0156,-168568.0625,-166400.9688,-167945.3281,-169532.4063,-187500.0156,-187500.0156,-187500.0156,-186306.2813,-182906.7969,-183927.6250,6.023621,NaN,NaN,NaN
-830.1661,-187500.0156,-187500.0156,-187500.0156,-173846.3438,-177371.6406,-168879.3594,-175167.0000,-187500.0156,-187500.0156,-187500.0156,-187500.0156,-167535.1719,-162637.2344,-167085.0000,-167735.2188,-187500.0156,-187500.0156,-187500.0156,-184357.0625,-181505.0156,-182759.6563,6.027618,NaN,NaN,NaN
-710.8525,-187500.0156,-187500.0156,-187500.0156,-173315.3594,-175695.5625,-167899.7969,-174247.6875,-187500.0156,-187500.0156,-187500.0156,-187500.0156,-166869.7656,-160028.4219,-166558.0469,-166501.3594,-187500.0156,-187500.0156,-187500.0156,-183144.7500,-180525.4688,-181813.3594,6.031616,NaN,NaN,NaN
-547.8636,-187500.0156,-187500.0156,-187500.0156,-173786.6250,-176972.0469,-168703.9688,-174965.2656,-187500.0156,-187500.0156,-187500.0156,-187500.0156,-167426.8281,-161911.2500,-167041.2656,-167413.3125,-187500.0156,-187500.0156,-187500.0156,-184213.7656,-181219.6250,-182307.0625,6.035614,NaN,NaN,NaN
-499.0474,-187500.0156,-187500.0156,-187500.0156,-174658.4688,-179607.7031,-170282.2031,-176420.1719,-187500.0156,-187500.0156,-187500.0156,-187500.0156,-168500.5000,-165945.4219,-167918.7188,-169332.6094,-187500.0156,-187500.0156,-187500.0156,-186212.5938,-182727.4063,-183641.8750,6.039612,NaN,NaN,NaN
-608.2803,-187500.0156,-187500.0156,-187500.0156,-174674.5469,-179809.5469,-170364.4063,-176522.1563,-187500.0156,-187500.0156,-187500.0156,-187500.0156,-168544.7344,-166328.2656,-167926.7031,-169500.3594,-187500.0156,-187500.0156,-187500.0156,-186251.8750,-182881.2031,-183911.7969,6.043610,NaN,NaN,NaN
-664.5844,-187500.0156,-187500.0156,-187500.0156,-173826.3438,-177313.1563,-168851.3125,-175144.2813,-187500.0156,-187500.0156,-187500.0156,-187500.0156,-167509.3750,-162545.5469,-167068.5625,-167701.0156,-187500.0156,-187500.0156,-187500.0156,-184288.3594,-181468.7344,-182733.6875,6.047607,NaN,NaN,NaN
-644.4902,-187500.0156,-187500.0156,-187500.0156,-173302.9531,-175645.9531,-167878.8438,-174231.5313,-187500.0156,-187500.0156,-187500.0156,-187500.0156,-166852.5000,-159948.8750,-166548.9219,-166475.6563,-187500.0156,-187500.0156,-187500.0156,-183089.1406,-180491.6875,-181786.9531,6.051605,NaN,NaN,NaN
-619.0762,-187500.0156,-187500.0156,-187500.0156,-173775.4688,-176944.5000,-168691.0156,-174954.3906,-187500.0156,-187500.0156,-187500.0156,-187500.0156,-167420.7344,-161874.6563,-167035.5156,-167397.5000,-187500.0156,-187500.0156,-187500.0156,-184199.0156,-181205.4219,-182294.3594,6.055603,NaN,NaN,NaN
-665.5679,-187500.0156,-187500.0156,-187500.0156,-174675.3438,-179643.1250,-170307.7969,-176444.7500,-187500.0156,-187500.0156,-187500.0156,-187500.0156,-168529.2656,-165998.8906,-167941.0625,-169363.8125,-187500.0156,-187500.0156,-187500.0156,-186253.0781,-182745.7813,-183655.7656,6.059601,NaN,NaN,NaN
-778.7795,-187500.0156,-187500.0156,-187500.0156,-174708.4531,-179886.8594,-170415.5938,-176570.6406,-187500.0156,-187500.0156,-187500.0156,-187500.0156,-168594.5938,-166444.1563,-167964.7656,-169562.8750,-187500.0156,-187500.0156,-187500.0156,-186325.5000,-182923.2500,-183947.1875,6.063599,NaN,NaN,NaN
-751.9573,-187500.0156,-187500.0156,-187500.0156,-173843.8594,-177372.4219,-168886.7500,-175177.6719,-187500.0156,-187500.0156,-187500.0156,-187500.0156,-167544.7344,-162642.5781,-167091.5781,-167745.5625,-187500.0156,-187500.0156,-187500.0156,-184348.7344,-181508.0313,-182769.9219,6.067596,NaN,NaN,NaN
-598.5126,-187500.0156,-187500.0156,-187500.0156,-173310.0781,-175665.7969,-167893.5156,-174247.5156,-187500.0156,-187500.0156,-187500.0156,-187500.0156,-166867.7500,-159978.5156,-166560.0938,-166495.1719,-187500.0156,-187500.0156,-187500.0156,-183097.9219,-180503.1406,-181802.2031,6.071594,NaN,NaN,NaN
-463.5528,-187500.0156,-187500.0156,-187500.0156,-173765.3906,-176907.2500,-168675.1094,-174943.1563,-187500.0156,-187500.0156,-187500.0156,-187500.0156,-167407.9844,-161813.6094,-167027.8594,-167379.1250,-187500.0156,-187500.0156,-187500.0156,-184147.9063,-181180.6875,-182279.6719,6.075592,NaN,NaN,NaN
-485.3011,-187500.0156,-187500.0156,-187500.0156,-174640.7656,-179559.2969,-170261.2188,-176404.0781,-187500.0156,-187500.0156,-187500.0156,-187500.0156,-168489.5625,-165874.6563,-167910.4531,-169307.5000,-187500.0156,-187500.0156,-187500.0156,-186170.4688,-182699.0156,-183620.6875,6.079590,NaN,NaN,NaN
-669.7476,-187500.0156,-187500.0156,-187500.0156,-174688.8281,-179827.7344,-170386.7656,-176546.6406,-187500.0156,-187500.0156,-187500.0156,-187500.0156,-168569.6250,-166351.0000,-167949.1719,-169527.6719,-187500.0156,-187500.0156,-187500.0156,-186261.6875,-182884.8281,-183916.6094,6.083588,NaN,NaN,NaN
-777.6842,-187500.0156,-187500.0156,-187500.0156,-173846.0938,-177360.7031,-168887.7813,-175181.0313,-187500.0156,-187500.0156,-187500.0156,-187500.0156,-167547.0781,-162620.2188,-167097.1406,-167746.2344,-187500.0156,-187500.0156,-187500.0156,-184332.4219,-181495.2656,-182759.3906,6.087585,NaN,NaN,NaN
-744.1343,-187500.0156,-187500.0156,-187500.0156,-173315.9531,-175685.6406,-167907.6875,-174261.0938,-187500.0156,-187500.0156,-187500.0156,-187500.0156,-166885.2500,-160014.6875,-166571.3438,-166512.5938,-187500.0156,-187500.0156,-187500.0156,-183129.0156,-180517.0781,-181813.3750,6.091583,NaN,NaN,NaN
-643.3950,-187500.0156,-187500.0156,-187500.0156,-173788.2500,-176962.1719,-168711.0469,-174977.2969,-187500.0156,-187500.0156,-187500.0156,-187500.0156,-167446.3281,-161898.2344,-167055.7656,-167423.6094,-187500.0156,-187500.0156,-187500.0156,-184207.0625,-181212.0938,-182306.0000,6.095581,NaN,NaN,NaN
-608.4368,-187500.0156,-187500.0156,-187500.0156,-174670.8125,-179626.8594,-170306.2500,-176447.3281,-187500.0156,-187500.0156,-187500.0156,-187500.0156,-168534.5000,-165975.3594,-167944.4531,-169363.2344,-187500.0156,-187500.0156,-187500.0156,-186232.3438,-182736.7031,-183654.0156,6.099579,NaN,NaN,NaN
-670.5970,-187500.0156,-187500.0156,-187500.0156,-174696.0000,-179860.0313,-170406.6094,-176566.1250,-187500.0156,-187500.0156,-187500.0156,-187500.0156,-168589.9531,-166406.7500,-167961.1563,-169553.3281,-187500.0156,-187500.0156,-187500.0156,-186292.6563,-182909.2656,-183941.4844,6.103577,NaN,NaN,NaN
-651.5310,-187500.0156,-187500.0156,-187500.0156,-173841.8281,-177350.6094,-168885.7031,-175181.9219,-187500.0156,-187500.0156,-187500.0156,-187500.0156,-167545.4531,-162604.3594,-167096.3906,-167745.1719,-187500.0156,-187500.0156,-187500.0156,-184309.6563,-181489.8281,-182760.7969,6.107574,NaN,NaN,NaN
-562.1016,-187500.0156,-187500.0156,-187500.0156,-173300.7813,-175632.0000,-167883.6406,-174242.7656,-187500.0156,-187500.0156,-187500.0156,-187500.0156,-166863.5000,-159927.3125,-166558.3281,-166483.4375,-187500.0156,-187500.0156,-187500.0156,-183060.9219,-180482.6406,-181790.2031,6.111572,NaN,NaN,NaN
-502.8248,-187500.0156,-187500.0156,-187500.0156,-173755.9219,-176880.2813,-168666.5938,-174938.7344,-187500.0156,-187500.0156,-187500.0156,-187500.0156,-167408.3906,-161775.6406,-167027.3906,-167368.9844,-187500.0156,-187500.0156,-187500.0156,-184128.5625,-181166.4219,-182270.9219,6.115570,NaN,NaN,NaN
-585.9733,-187500.0156,-187500.0156,-187500.0156,-174657.0781,-179580.0938,-170284.9219,-176429.8438,-187500.0156,-187500.0156,-187500.0156,-187500.0156,-168518.3125,-165901.0156,-167934.8125,-169336.2344,-187500.0156,-187500.0156,-187500.0156,-186187.3906,-182706.0781,-183628.6875,6.119568,NaN,NaN,NaN
-782.5569,-187500.0156,-187500.0156,-187500.0156,-174709.8125,-179877.7656,-170424.8906,-176584.8594,-187500.0156,-187500.0156,-187500.0156,-187500.0156,-168609.0313,-166429.0313,-167978.5156,-169574.1563,-187500.0156,-187500.0156,-187500.0156,-186309.4219,-182914.2656,-183944.6406,6.123566,NaN,NaN,NaN
-830.8590,-187500.0156,-187500.0156,-187500.0156,-173860.6094,-177406.3438,-168920.5781,-175214.3594,-187500.0156,-187500.0156,-187500.0156,-187500.0156,-167581.1250,-162695.0781,-167120.9063,-167787.7031,-187500.0156,-187500.0156,-187500.0156,-184374.2656,-181525.1563,-182790.1875,6.127563,NaN,NaN,NaN
-712.8865,-187500.0156,-187500.0156,-187500.0156,-173328.5625,-175703.5313,-167928.5156,-174285.2813,-187500.0156,-187500.0156,-187500.0156,-187500.0156,-166908.9375,-160037.5938,-166591.4531,-166539.9375,-187500.0156,-187500.0156,-187500.0156,-183130.8906,-180524.1406,-181826.7188,6.131561,NaN,NaN,NaN
-548.8470,-187500.0156,-187500.0156,-187500.0156,-173776.4531,-176923.9531,-168697.1250,-174968.9063,-187500.0156,-187500.0156,-187500.0156,-187500.0156,-167440.2813,-161840.2813,-167051.3281,-167407.7656,-187500.0156,-187500.0156,-187500.0156,-184163.6406,-181190.3125,-182294.8750,6.135559,NaN,NaN,NaN
-497.1028,-187500.0156,-187500.0156,-187500.0156,-174647.4219,-179565.5313,-170277.6563,-176424.6875,-187500.0156,-187500.0156,-187500.0156,-187500.0156,-168514.9844,-165884.8438,-167929.3594,-169328.8594,-187500.0156,-187500.0156,-187500.0156,-186172.2031,-182702.3906,-183630.7500,6.139557,NaN,NaN,NaN
-607.4980,-187500.0156,-187500.0156,-187500.0156,-174694.5000,-179835.2969,-170404.8281,-176569.2344,-187500.0156,-187500.0156,-187500.0156,-187500.0156,-168591.2500,-166362.7813,-167966.8438,-169550.7656,-187500.0156,-187500.0156,-187500.0156,-186255.1094,-182888.2188,-183928.0938,6.143555,NaN,NaN,NaN
-665.9926,-187500.0156,-187500.0156,-187500.0156,-173857.4688,-177356.5938,-168898.4688,-175199.5000,-187500.0156,-187500.0156,-187500.0156,-187500.0156,-167558.4375,-162603.7031,-167109.1875,-167759.4844,-187500.0156,-187500.0156,-187500.0156,-184302.7813,-181486.0625,-182761.4531,6.147552,NaN,NaN,NaN
-645.4513,-187500.0156,-187500.0156,-187500.0156,-173376.0156,-175686.9375,-167919.2813,-174289.1094,-187500.0156,-187500.0156,-187500.0156,-187500.0156,-166891.8594,-159961.5000,-166585.8281,-166521.4219,-187500.0156,-187500.0156,-187500.0156,-183076.8750,-180490.1250,-181800.0469,6.151550,NaN,NaN,NaN
-620.2609,-187500.0156,-187500.0156,-187500.0156,-173864.3594,-176961.9531,-168721.1719,-175005.8125,-187500.0156,-187500.0156,-187500.0156,-187500.0156,-167453.2500,-161830.0000,-167071.6094,-167428.2813,-187500.0156,-187500.0156,-187500.0156,-184153.9375,-181178.6719,-182284.7344,6.155548,NaN,NaN,NaN
-664.6738,-187500.0156,-187500.0156,-187500.0156,-174761.8438,-179658.5938,-170335.2188,-176492.6250,-187500.0156,-187500.0156,-187500.0156,-187500.0156,-168558.9531,-165955.6875,-167973.0625,-169389.7188,-187500.0156,-187500.0156,-187500.0156,-186214.9219,-182721.9063,-183645.8750,6.159546,NaN,NaN,NaN
-776.7454,-187500.0156,-187500.0156,-187500.0156,-174811.2500,-179956.8594,-170473.5469,-176646.0469,-187500.0156,-187500.0156,-187500.0156,-187500.0156,-168644.2656,-166486.2188,-168012.4219,-169625.9375,-187500.0156,-187500.0156,-187500.0156,-186331.8281,-182932.1250,-183965.1719,6.163544,NaN,NaN,NaN
-753.1420,-187500.0156,-187500.0156,-187500.0156,-173966.9219,-177475.4531,-168968.0781,-175276.3906,-187500.0156,-187500.0156,-187500.0156,-187500.0156,-167612.0781,-162727.9063,-167156.5156,-167838.2656,-187500.0156,-187500.0156,-187500.0156,-184369.1563,-181529.6250,-182801.7188,6.167542,NaN,NaN,NaN
-601.3290,-187500.0156,-187500.0156,-187500.0156,-173413.5156,-175721.7031,-167944.1563,-174317.6563,-187500.0156,-187500.0156,-187500.0156,-187500.0156,-166913.2813,-159998.9375,-166604.3594,-166551.4688,-187500.0156,-187500.0156,-187500.0156,-183086.7344,-180503.2344,-181817.1563,6.171539,NaN,NaN,NaN
-464.4916,-187500.0156,-187500.0156,-187500.0156,-173849.5781,-176911.4531,-168693.1094,-174982.6875,-187500.0156,-187500.0156,-187500.0156,-187500.0156,-167430.5156,-161756.7969,-167052.3906,-167395.3438,-187500.0156,-187500.0156,-187500.0156,-184100.6250,-181153.3125,-182269.5469,6.175537,NaN,NaN,NaN
-484.5858,-187500.0156,-187500.0156,-187500.0156,-174743.5625,-179586.8281,-170298.2656,-176461.9688,-187500.0156,-187500.0156,-187500.0156,-187500.0156,-168527.2031,-165843.2813,-167951.3750,-169345.3438,-187500.0156,-187500.0156,-187500.0156,-186134.4531,-182677.5781,-183612.9844,6.179535,NaN,NaN,NaN
-669.4794,-187500.0156,-187500.0156,-187500.0156,-174803.1250,-179902.1250,-170449.6094,-176627.3906,-187500.0156,-187500.0156,-187500.0156,-187500.0156,-168623.2500,-166397.2813,-168000.6875,-169596.2500,-187500.0156,-187500.0156,-187500.0156,-186267.9375,-182894.4844,-183935.7344,6.183533,NaN,NaN,NaN
-746.4141,-187500.0156,-187500.0156,-187500.0156,-173431.8438,-175748.0938,-167964.1719,-174337.7656,-187500.0156,-187500.0156,-187500.0156,-187500.0156,-166935.7656,-160038.0313,-166622.0781,-166576.0781,-187500.0156,-187500.0156,-187500.0156,-183116.0156,-180515.9375,-181827.0313,6.187531,NaN,NaN,NaN
-645.0714,-187500.0156,-187500.0156,-187500.0156,-173883.1563,-176972.2969,-168734.1875,-175022.3281,-187500.0156,-187500.0156,-187500.0156,-187500.0156,-167472.8594,-161846.8594,-167084.6094,-167445.6563,-187500.0156,-187500.0156,-187500.0156,-184160.9063,-181185.6250,-182296.5000,6.191528,NaN,NaN,NaN
-606.6710,-187500.0156,-187500.0156,-187500.0156,-174765.0625,-179640.1406,-170329.9844,-176491.9531,-187500.0156,-187500.0156,-187500.0156,-187500.0156,-168561.1875,-165930.2188,-167972.9219,-169384.8281,-187500.0156,-187500.0156,-187500.0156,-186194.2969,-182713.5000,-183644.7656,6.195526,NaN,NaN,NaN
-669.5912,-187500.0156,-187500.0156,-187500.0156,-174823.6563,-179943.5156,-170477.1094,-176654.9063,-187500.0156,-187500.0156,-187500.0156,-187500.0156,-168650.0938,-166458.8906,-168020.6094,-169630.8438,-187500.0156,-187500.0156,-187500.0156,-186299.3438,-182918.9375,-183960.5313,6.199524,NaN,NaN,NaN
-653.0956,-187500.0156,-187500.0156,-187500.0156,-173967.5625,-177444.4375,-168959.3594,-175273.4063,-187500.0156,-187500.0156,-187500.0156,-187500.0156,-167606.3125,-162680.5469,-167153.4063,-167827.7813,-187500.0156,-187500.0156,-187500.0156,-184328.3750,-181510.5313,-182792.0938,6.203522,NaN,NaN,NaN
-563.8004,-187500.0156,-187500.0156,-187500.0156,-173407.9375,-175682.6719,-167928.1875,-174307.3438,-187500.0156,-187500.0156,-187500.0156,-187500.0156,-166904.0625,-159942.0625,-166597.2188,-166532.8750,-187500.0156,-187500.0156,-187500.0156,-183047.4531,-180481.0781,-181803.4531,6.207520,NaN,NaN,NaN
-504.7247,-187500.0156,-187500.0156,-187500.0156,-173861.6094,-176895.4844,-168694.8281,-174989.2031,-187500.0156,-187500.0156,-187500.0156,-187500.0156,-167439.7969,-161726.2188,-167062.6250,-167397.8594,-187500.0156,-187500.0156,-187500.0156,-184079.5938,-181137.6094,-182259.4688,6.211517,NaN,NaN,NaN
-584.9005,-187500.0156,-187500.0156,-187500.0156,-174760.1719,-179595.5625,-170312.0156,-176478.1406,-187500.0156,-187500.0156,-187500.0156,-187500.0156,-168548.2031,-165856.8281,-167966.9688,-169362.0469,-187500.0156,-187500.0156,-187500.0156,-186147.5781,-182681.4688,-183618.1406,6.215515,NaN,NaN,NaN
-780.8582,-187500.0156,-187500.0156,-187500.0156,-174828.6094,-179948.7656,-170483.4844,-176661.5000,-187500.0156,-187500.0156,-187500.0156,-187500.0156,-168659.8594,-166471.7813,-168026.9531,-169638.0469,-187500.0156,-187500.0156,-187500.0156,-186315.4375,-182923.4531,-183963.0313,6.219513,NaN,NaN,NaN
-780.8582,-187500.0156,-187500.0156,-187500.0156,-174828.6094,-179948.7656,-170483.4844,-176661.5000,-187500.0156,-187500.0156,-187500.0156,-187500.0156,-168659.8594,-166471.7813,-168026.9531,-169638.0469,-187500.0156,-187500.0156,-187500.0156,-186315.4375,-182923.4531,-183963.0313,6.223511,NaN,NaN,NaN
-832.5131,-187500.0156,-187500.0156,-187500.0156,-173998.1250,-177508.7188,-169001.4688,-175313.2344,-187500.0156,-187500.0156,-187500.0156,-187500.0156,-167648.2969,-162778.0781,-167185.5000,-167879.4531,-187500.0156,-187500.0156,-187500.0156,-184393.2500,-181546.2969,-182821.4844,6.227509,NaN,NaN,NaN
-832.5131,-187500.0156,-187500.0156,-187500.0156,-173998.1250,-177508.7188,-169001.4688,-175313.2344,-187500.0156,-187500.0156,-187500.0156,-187500.0156,-167648.2969,-162778.0781,-167185.5000,-167879.4531,-187500.0156,-187500.0156,-187500.0156,-184393.2500,-181546.2969,-182821.4844,6.231506,NaN,NaN,NaN
-715.4122,-187500.0156,-187500.0156,-187500.0156,-173446.2031,-175760.9531,-167979.4844,-174356.2500,-187500.0156,-187500.0156,-187500.0156,-187500.0156,-166954.2031,-160058.2813,-166635.2813,-166596.0781,-187500.0156,-187500.0156,-187500.0156,-183119.5000,-180524.3281,-181841.6094,6.235504,NaN,NaN,NaN
-715.4122,-187500.0156,-187500.0156,-187500.0156,-173446.2031,-175760.9531,-167979.4844,-174356.2500,-187500.0156,-187500.0156,-187500.0156,-187500.0156,-166954.2031,-160058.2813,-166635.2813,-166596.0781,-187500.0156,-187500.0156,-187500.0156,-183119.5000,-180524.3281,-181841.6094,6.239502,NaN,NaN,NaN
-549.9423,-187500.0156,-187500.0156,-187500.0156,-173874.7969,-176931.4219,-168716.1719,-175010.1719,-187500.0156,-187500.0156,-187500.0156,-187500.0156,-167463.6406,-161786.5938,-167076.4063,-167425.3125,-187500.0156,-187500.0156,-187500.0156,-184117.5781,-181163.8750,-182285.5938,6.243500,NaN,NaN,NaN
-495.8511,-187500.0156,-187500.0156,-187500.0156,-174762.4219,-179590.9688,-170312.4688,-176481.2031,-187500.0156,-187500.0156,-187500.0156,-187500.0156,-168551.0938,-165847.9531,-167968.8438,-169363.7188,-187500.0156,-187500.0156,-187500.0156,-186133.4375,-182678.9688,-183621.3906,6.247498,NaN,NaN,NaN
-495.8511,-187500.0156,-187500.0156,-187500.0156,-174762.4219,-179590.9688,-170312.4688,-176481.2031,-187500.0156,-187500.0156,-187500.0156,-187500.0156,-168551.0938,-165847.9531,-167968.8438,-169363.7188,-187500.0156,-187500.0156,-187500.0156,-186133.4375,-182678.9688,-183621.3906,6.251495,NaN,NaN,NaN
-606.0228,-187500.0156,-187500.0156,-187500.0156,-174821.2344,-179909.4688,-170466.6250,-176649.5781,-187500.0156,-187500.0156,-187500.0156,-187500.0156,-168644.2031,-166406.7500,-168017.6563,-169617.9219,-187500.0156,-187500.0156,-187500.0156,-186260.4063,-182897.0156,-183946.2188,6.255493,NaN,NaN,NaN
-606.0228,-187500.0156,-187500.0156,-187500.0156,-174821.2344,-179909.4688,-170466.6250,-176649.5781,-187500.0156,-187500.0156,-187500.0156,-187500.0156,-168644.2031,-166406.7500,-168017.6563,-169617.9219,-187500.0156,-187500.0156,-187500.0156,-186260.4063,-182897.0156,-183946.2188,6.259491,NaN,NaN,NaN
-666.9760,-187500.0156,-187500.0156,-187500.0156,-173973.1406,-177441.3125,-168964.8125,-175282.0313,-187500.0156,-187500.0156,-187500.0156,-187500.0156,-167615.1875,-162678.2500,-167160.6250,-167835.0781,-187500.0156,-187500.0156,-187500.0156,-184323.4063,-181508.6719,-182794.2188,6.263489,NaN,NaN,NaN
-648.2229,-187500.0156,-187500.0156,-187500.0156,-173432.9688,-175708.5938,-167954.4063,-174336.0625,-187500.0156,-187500.0156,-187500.0156,-187500.0156,-166933.1406,-159975.6563,-166622.1875,-166565.3281,-187500.0156,-187500.0156,-187500.0156,-183064.4219,-180490.5313,-181815.2344,6.267487,NaN,NaN,NaN
-648.2229,-187500.0156,-187500.0156,-187500.0156,-173432.9688,-175708.5938,-167954.4063,-174336.0625,-187500.0156,-187500.0156,-187500.0156,-187500.0156,-166933.1406,-159975.6563,-166622.1875,-166565.3281,-187500.0156,-187500.0156,-187500.0156,-183064.4219,-180490.5313,-181815.2344,6.271484,NaN,NaN,NaN
-621.7584,-187500.0156,-187500.0156,-187500.0156,-173879.9375,-176915.6094,-168714.2656,-175011.0000,-187500.0156,-187500.0156,-187500.0156,-187500.0156,-167466.1406,-161757.7188,-167081.0781,-167422.3125,-187500.0156,-187500.0156,-187500.0156,-184102.8125,-181149.5938,-182273.1094,6.275482,NaN,NaN,NaN
-662.7739,-187500.0156,-187500.0156,-187500.0156,-174774.7031,-179617.7656,-170330.2500,-176498.4375,-187500.0156,-187500.0156,-187500.0156,-187500.0156,-168573.1406,-165893.7656,-167983.1250,-169385.4063,-187500.0156,-187500.0156,-187500.0156,-186173.5313,-182697.3594,-183635.2500,6.279480,NaN,NaN,NaN
-662.7739,-187500.0156,-187500.0156,-187500.0156,-174774.7031,-179617.7656,-170330.2500,-176498.4375,-187500.0156,-187500.0156,-187500.0156,-187500.0156,-168573.1406,-165893.7656,-167983.1250,-169385.4063,-187500.0156,-187500.0156,-187500.0156,-186173.5313,-182697.3594,-183635.2500,6.283478,NaN,NaN,NaN
-775.7173,-187500.0156,-187500.0156,-187500.0156,-174855.8125,-179986.9219,-170515.8594,-176696.3438,-187500.0156,-187500.0156,-187500.0156,-187500.0156,-168692.5000,-166523.1875,-168054.0000,-169678.2969,-187500.0156,-187500.0156,-187500.0156,-186336.1094,-182941.2500,-183983.5469,6.287476,NaN,NaN,NaN
-755.1537,-187500.0156,-187500.0156,-187500.0156,-174007.5000,-177513.8438,-169012.3594,-175328.1563,-187500.0156,-187500.0156,-187500.0156,-187500.0156,-167660.2656,-162785.4844,-167194.9063,-167894.0313,-187500.0156,-187500.0156,-187500.0156,-184384.3906,-181548.9688,-182831.4531,6.291473,NaN,NaN,NaN
-603.2959,-187500.0156,-187500.0156,-187500.0156,-173435.6563,-175720.2969,-167961.7031,-174344.7813,-187500.0156,-187500.0156,-187500.0156,-187500.0156,-166941.9844,-159998.8125,-166625.3438,-166575.7500,-187500.0156,-187500.0156,-187500.0156,-183073.0938,-180502.7188,-181831.0469,6.295471,NaN,NaN,NaN
-466.5032,-187500.0156,-187500.0156,-187500.0156,-173869.1563,-176876.9844,-168695.5156,-174996.8750,-187500.0156,-187500.0156,-187500.0156,-187500.0156,-167450.6406,-161696.8906,-167069.9688,-167400.4063,-187500.0156,-187500.0156,-187500.0156,-184053.5938,-181127.1719,-182260.2969,6.299469,NaN,NaN,NaN
-483.8258,-187500.0156,-187500.0156,-187500.0156,-174757.6875,-179549.5156,-170297.5781,-176471.8594,-187500.0156,-187500.0156,-187500.0156,-187500.0156,-168544.2344,-165783.6875,-167964.7656,-169345.2344,-187500.0156,-187500.0156,-187500.0156,-186093.4375,-182653.6250,-183603.0781,6.303467,NaN,NaN,NaN
-483.8258,-187500.0156,-187500.0156,-187500.0156,-174757.6875,-179549.5156,-170297.5781,-176471.8594,-187500.0156,-187500.0156,-187500.0156,-187500.0156,-168544.2344,-165783.6875,-167964.7656,-169345.2344,-187500.0156,-187500.0156,-187500.0156,-186093.4375,-182653.6250,-183603.0781,6.307465,NaN,NaN,NaN
-667.5572,-187500.0156,-187500.0156,-187500.0156,-174831.5781,-179918.7969,-170479.7031,-176665.0781,-187500.0156,-187500.0156,-187500.0156,-187500.0156,-168660.9844,-166422.2500,-168030.2344,-169633.3281,-187500.0156,-187500.0156,-187500.0156,-186271.6563,-182903.5156,-183953.9375,6.311462,NaN,NaN,NaN
-780.1205,-187500.0156,-187500.0156,-187500.0156,-174007.0313,-177495.6250,-169007.7656,-175325.8906,-187500.0156,-187500.0156,-187500.0156,-187500.0156,-167657.5156,-162755.4219,-167195.0938,-167887.3438,-187500.0156,-187500.0156,-187500.0156,-184365.9219,-181535.5469,-182820.3594,6.315460,NaN,NaN,NaN
-605.3299,-187500.0156,-187500.0156,-187500.0156,-174785.8750,-179611.5000,-170337.4063,-176509.7969,-187500.0156,-187500.0156,-187500.0156,-187500.0156,-168584.2500,-165876.8125,-167993.8438,-169393.8281,-187500.0156,-187500.0156,-187500.0156,-186153.1250,-182689.6563,-183635.1563,6.319458,NaN,NaN,NaN
-653.9449,-187500.0156,-187500.0156,-187500.0156,-173999.7344,-177481.0938,-169000.7813,-175321.6719,-187500.0156,-187500.0156,-187500.0156,-187500.0156,-167651.6406,-162737.9219,-167188.7656,-167880.0781,-187500.0156,-187500.0156,-187500.0156,-184344.5938,-181531.1094,-182822.8750,6.323456,NaN,NaN,NaN
-505.8647,-187500.0156,-187500.0156,-187500.0156,-173869.0781,-176849.9219,-168688.7656,-174994.5938,-187500.0156,-187500.0156,-187500.0156,-187500.0156,-167452.1563,-161655.7188,-167071.6563,-167392.2500,-187500.0156,-187500.0156,-187500.0156,-184029.2656,-181109.9375,-182248.9844,6.327454,NaN,NaN,NaN
-582.8664,-187500.0156,-187500.0156,-187500.0156,-174765.1719,-179552.5000,-170306.0313,-176482.4844,-187500.0156,-187500.0156,-187500.0156,-187500.0156,-168560.0156,-165791.4688,-167974.9688,-169355.3438,-187500.0156,-187500.0156,-187500.0156,-186104.3750,-182656.8125,-183607.3906,6.331451,NaN,NaN,NaN
-833.8094,-187500.0156,-187500.0156,-187500.0156,-174034.0938,-177548.4375,-169046.9688,-175365.7969,-187500.0156,-187500.0156,-187500.0156,-187500.0156,-167695.9688,-162836.3125,-167223.7656,-167935.5313,-187500.0156,-187500.0156,-187500.0156,-184408.3438,-181566.7031,-182852.2813,6.335449,NaN,NaN,NaN
-551.3281,-187500.0156,-187500.0156,-187500.0156,-173888.4219,-176892.2813,-168716.2344,-175021.9063,-187500.0156,-187500.0156,-187500.0156,-187500.0156,-167480.9063,-161719.2500,-167092.0625,-167427.0938,-187500.0156,-187500.0156,-187500.0156,-184065.0156,-181134.9531,-182274.0156,6.339447,NaN,NaN,NaN
-494.9347,-187500.0156,-187500.0156,-187500.0156,-174771.1719,-179549.9063,-170309.9844,-176489.2969,-187500.0156,-187500.0156,-187500.0156,-187500.0156,-168565.4688,-165782.6406,-167979.9844,-169360.7031,-187500.0156,-187500.0156,-187500.0156,-186088.3750,-182653.1719,-183609.6250,6.343445,NaN,NaN,NaN
-604.5476,-187500.0156,-187500.0156,-187500.0156,-174845.7344,-179924.9219,-170496.4844,-176686.6406,-187500.0156,-187500.0156,-187500.0156,-187500.0156,-168680.7031,-166429.2344,-168046.5938,-169653.9531,-187500.0156,-187500.0156,-187500.0156,-186261.2188,-182904.9063,-183963.2813,6.347443,NaN,NaN,NaN
-650.8157,-187500.0156,-187500.0156,-187500.0156,-173454.1875,-175709.6719,-167976.3438,-174367.1563,-187500.0156,-187500.0156,-187500.0156,-187500.0156,-166964.5938,-159976.8438,-166646.9531,-166594.0781,-187500.0156,-187500.0156,-187500.0156,-183047.6875,-180489.3750,-181828.8438,6.351440,NaN,NaN,NaN
-622.2949,-187500.0156,-187500.0156,-187500.0156,-173880.9688,-176866.1719,-168704.2500,-175011.9375,-187500.0156,-187500.0156,-187500.0156,-187500.0156,-167475.3594,-161684.0469,-167086.8594,-167412.0938,-187500.0156,-187500.0156,-187500.0156,-184051.0938,-181121.5625,-182262.3594,6.355438,NaN,NaN,NaN
-661.4999,-187500.0156,-187500.0156,-187500.0156,-174791.3281,-179586.6719,-170336.2656,-176514.6094,-187500.0156,-187500.0156,-187500.0156,-187500.0156,-168594.5938,-165837.3594,-168002.8281,-169392.7500,-187500.0156,-187500.0156,-187500.0156,-186129.0781,-182672.0000,-183624.4063,6.359436,NaN,NaN,NaN
-774.8903,-187500.0156,-187500.0156,-187500.0156,-174883.4375,-180003.6875,-170548.5156,-176736.1719,-187500.0156,-187500.0156,-187500.0156,-187500.0156,-168731.3281,-166545.8750,-168085.5781,-169717.5469,-187500.0156,-187500.0156,-187500.0156,-186334.7344,-182947.5469,-183999.5938,6.363434,NaN,NaN,NaN
-756.2042,-187500.0156,-187500.0156,-187500.0156,-174035.2344,-177544.1719,-169050.5781,-175373.2188,-187500.0156,-187500.0156,-187500.0156,-187500.0156,-167702.0938,-162832.5938,-167227.5938,-167941.1875,-187500.0156,-187500.0156,-187500.0156,-184394.4688,-181566.1719,-182859.3906,6.367432,NaN,NaN,NaN
-605.5981,-187500.0156,-187500.0156,-187500.0156,-173461.9844,-175722.6094,-167987.0156,-174379.4531,-187500.0156,-187500.0156,-187500.0156,-187500.0156,-166976.7813,-159995.3281,-166655.5781,-166608.4844,-187500.0156,-187500.0156,-187500.0156,-183050.7031,-180497.1719,-181840.7500,6.371429,NaN,NaN,NaN
-467.4420,-187500.0156,-187500.0156,-187500.0156,-173873.9219,-176829.2969,-168688.6250,-175001.0469,-187500.0156,-187500.0156,-187500.0156,-187500.0156,-167462.4375,-161622.7969,-167079.3438,-167393.9063,-187500.0156,-187500.0156,-187500.0156,-183999.7031,-181096.9063,-182247.2188,6.375427,NaN,NaN,NaN
-481.5683,-187500.0156,-187500.0156,-187500.0156,-174762.1875,-179510.1094,-170294.2656,-176478.3906,-187500.0156,-187500.0156,-187500.0156,-187500.0156,-168558.0156,-165724.0313,-167974.7813,-169341.8594,-187500.0156,-187500.0156,-187500.0156,-186051.9063,-182629.8125,-183592.9531,6.379425,NaN,NaN,NaN
-666.4619,-187500.0156,-187500.0156,-187500.0156,-174867.9531,-179948.1719,-170522.1406,-176714.8125,-187500.0156,-187500.0156,-187500.0156,-187500.0156,-168707.8594,-166458.6719,-168071.1406,-169685.1094,-187500.0156,-187500.0156,-187500.0156,-186273.7813,-182912.0469,-183971.9219,6.383423,NaN,NaN,NaN
-781.4840,-187500.0156,-187500.0156,-187500.0156,-174039.3281,-177530.3125,-169050.4844,-175375.7813,-187500.0156,-187500.0156,-187500.0156,-187500.0156,-167703.0313,-162807.2344,-167231.8125,-167940.0469,-187500.0156,-187500.0156,-187500.0156,-184376.2188,-181552.6563,-182848.5781,6.387421,NaN,NaN,NaN
-750.0351,-187500.0156,-187500.0156,-187500.0156,-173470.1875,-175741.3594,-168000.5313,-174392.6563,-187500.0156,-187500.0156,-187500.0156,-187500.0156,-166993.2031,-160029.3281,-166666.0000,-166624.5781,-187500.0156,-187500.0156,-187500.0156,-183080.6094,-180510.3125,-181851.3750,6.391418,NaN,NaN,NaN
-646.8818,-187500.0156,-187500.0156,-187500.0156,-173899.7188,-176884.2500,-168724.6250,-175035.2969,-187500.0156,-187500.0156,-187500.0156,-187500.0156,-167500.6094,-161706.9063,-167107.2969,-167438.0781,-187500.0156,-187500.0156,-187500.0156,-184058.5469,-181127.9531,-182273.2344,6.395416,NaN,NaN,NaN
-604.0782,-187500.0156,-187500.0156,-187500.0156,-174793.7031,-179574.6250,-170337.0938,-176519.7656,-187500.0156,-187500.0156,-187500.0156,-187500.0156,-168601.0313,-165820.5938,-168007.0781,-169394.7188,-187500.0156,-187500.0156,-187500.0156,-186111.6406,-182665.3125,-183624.5156,6.399414,NaN,NaN,NaN
-604.0782,-187500.0156,-187500.0156,-187500.0156,-174793.7031,-179574.6250,-170337.0938,-176519.7656,-187500.0156,-187500.0156,-187500.0156,-187500.0156,-168601.0313,-165820.5938,-168007.0781,-169394.7188,-187500.0156,-187500.0156,-187500.0156,-186111.6406,-182665.3125,-183624.5156,6.403412,NaN,NaN,NaN
-666.5737,-187500.0156,-187500.0156,-187500.0156,-174877.8594,-179980.1719,-170541.7031,-176734.1250,-187500.0156,-187500.0156,-187500.0156,-187500.0156,-168727.9688,-166513.3750,-168083.0313,-169710.3281,-187500.0156,-187500.0156,-187500.0156,-186304.1250,-182935.4844,-183995.9063,6.407410,NaN,NaN,NaN
-655.6213,-187500.0156,-187500.0156,-187500.0156,-174038.6406,-177522.7813,-169049.7969,-175377.8594,-187500.0156,-187500.0156,-187500.0156,-187500.0156,-167702.5000,-162794.5156,-167232.3906,-167940.9375,-187500.0156,-187500.0156,-187500.0156,-184354.4531,-181547.6563,-182850.4531,6.411407,NaN,NaN,NaN
-568.4943,-187500.0156,-187500.0156,-187500.0156,-173456.6094,-175687.0781,-167975.5625,-174373.3750,-187500.0156,-187500.0156,-187500.0156,-187500.0156,-166970.6719,-159942.4219,-166652.0156,-166594.9375,-187500.0156,-187500.0156,-187500.0156,-183011.6719,-180475.2656,-181827.9063,6.415405,NaN,NaN,NaN
-506.7364,-187500.0156,-187500.0156,-187500.0156,-173869.3594,-176800.2188,-168678.9063,-174995.6250,-187500.0156,-187500.0156,-187500.0156,-187500.0156,-167461.7031,-161581.6250,-167077.8281,-167382.0313,-187500.0156,-187500.0156,-187500.0156,-183977.8906,-181081.1719,-182237.5156,6.419403,NaN,NaN,NaN
-581.5030,-187500.0156,-187500.0156,-187500.0156,-174782.9531,-179526.4531,-170315.3906,-176502.0156,-187500.0156,-187500.0156,-187500.0156,-187500.0156,-168584.7031,-165743.2344,-167997.6875,-169367.1250,-187500.0156,-187500.0156,-187500.0156,-186064.5625,-182633.8438,-183598.6250,6.423401,NaN,NaN,NaN
-777.8407,-187500.0156,-187500.0156,-187500.0156,-174893.7031,-179996.3750,-170558.9531,-176751.8438,-187500.0156,-187500.0156,-187500.0156,-187500.0156,-168746.0469,-166533.1406,-168099.5938,-169729.8438,-187500.0156,-187500.0156,-187500.0156,-186318.9219,-182939.6406,-183998.1719,6.427399,NaN,NaN,NaN
-834.7259,-187500.0156,-187500.0156,-187500.0156,-174060.1563,-177579.5313,-169085.1250,-175410.7813,-187500.0156,-187500.0156,-187500.0156,-187500.0156,-167737.9688,-162886.4063,-167256.5625,-167983.7188,-187500.0156,-187500.0156,-187500.0156,-184418.9688,-181583.7969,-182880.4219,6.431396,NaN,NaN,NaN
-719.3238,-187500.0156,-187500.0156,-187500.0156,-173488.3594,-175761.1406,-168022.2969,-174417.8281,-187500.0156,-187500.0156,-187500.0156,-187500.0156,-167016.5156,-160054.4688,-166685.9219,-166652.7656,-187500.0156,-187500.0156,-187500.0156,-183081.8750,-180518.0469,-181865.7969,6.435394,NaN,NaN,NaN
-552.6245,-187500.0156,-187500.0156,-187500.0156,-173891.6875,-176842.8594,-168708.5938,-175025.3438,-187500.0156,-187500.0156,-187500.0156,-187500.0156,-167492.1406,-161643.7656,-167100.7813,-167419.6563,-187500.0156,-187500.0156,-187500.0156,-184010.8594,-181104.3750,-182261.1719,6.439392,NaN,NaN,NaN
-492.9901,-187500.0156,-187500.0156,-187500.0156,-174775.6406,-179511.9063,-170307.7500,-176496.7813,-187500.0156,-187500.0156,-187500.0156,-187500.0156,-168580.8594,-165726.1563,-167991.9531,-169359.3125,-187500.0156,-187500.0156,-187500.0156,-186048.2031,-182630.1563,-183600.8438,6.443390,NaN,NaN,NaN
-603.7429,-187500.0156,-187500.0156,-187500.0156,-174881.1875,-179953.9375,-170538.8594,-176736.3594,-187500.0156,-187500.0156,-187500.0156,-187500.0156,-168728.0156,-166465.7656,-168087.8125,-169706.1094,-187500.0156,-187500.0156,-187500.0156,-186263.7188,-182913.7031,-183981.9844,6.447388,NaN,NaN,NaN
-670.2617,-187500.0156,-187500.0156,-187500.0156,-174045.6094,-177519.5156,-169057.9531,-175389.3281,-187500.0156,-187500.0156,-187500.0156,-187500.0156,-167712.9375,-162789.4531,-167241.7969,-167950.4219,-187500.0156,-187500.0156,-187500.0156,-184345.5156,-181544.0313,-182851.4531,6.451385,NaN,NaN,NaN
-652.1568,-187500.0156,-187500.0156,-187500.0156,-173465.4375,-175698.0313,-167988.8594,-174388.8438,-187500.0156,-187500.0156,-187500.0156,-187500.0156,-166989.0313,-159962.8750,-166665.0781,-166612.0469,-187500.0156,-187500.0156,-187500.0156,-183024.5469,-180482.7500,-181837.8281,6.455383,NaN,NaN,NaN
-623.5690,-187500.0156,-187500.0156,-187500.0156,-173892.2969,-176827.5313,-168705.1875,-175023.9375,-187500.0156,-187500.0156,-187500.0156,-187500.0156,-167493.4844,-161618.6563,-167103.6406,-167415.2813,-187500.0156,-187500.0156,-187500.0156,-183999.2031,-181092.2813,-182250.4688,6.459381,NaN,NaN,NaN
-660.3152,-187500.0156,-187500.0156,-187500.0156,-174798.8594,-179549.0781,-170336.4063,-176524.6875,-187500.0156,-187500.0156,-187500.0156,-187500.0156,-168611.6563,-165779.4688,-168016.7656,-169393.8281,-187500.0156,-187500.0156,-187500.0156,-186087.0469,-182647.5625,-183613.9375,6.463379,NaN,NaN,NaN
-772.7892,-187500.0156,-187500.0156,-187500.0156,-174904.9688,-180018.4219,-170578.2500,-176772.8281,-187500.0156,-187500.0156,-187500.0156,-187500.0156,-168767.7500,-166570.1719,-168114.4219,-169754.1406,-187500.0156,-187500.0156,-187500.0156,-186336.2656,-182955.2188,-184016.9844,6.467377,NaN,NaN,NaN
-757.7688,-187500.0156,-187500.0156,-187500.0156,-174075.1094,-177590.6094,-169103.0313,-175432.4688,-187500.0156,-187500.0156,-187500.0156,-187500.0156,-167755.2656,-162897.3125,-167272.9844,-168005.9688,-187500.0156,-187500.0156,-187500.0156,-184408.8750,-181585.7500,-182889.8281,6.471375,NaN,NaN,NaN
-608.0568,-187500.0156,-187500.0156,-187500.0156,-173480.5625,-175722.8594,-168008.7344,-174410.1563,-187500.0156,-187500.0156,-187500.0156,-187500.0156,-167007.6719,-159997.0469,-166680.0000,-166637.2188,-187500.0156,-187500.0156,-187500.0156,-183034.2500,-180495.3750,-181854.3750,6.475372,NaN,NaN,NaN
-468.4031,-187500.0156,-187500.0156,-187500.0156,-173871.2188,-176776.1250,-168676.6094,-174999.9844,-187500.0156,-187500.0156,-187500.0156,-187500.0156,-167469.6094,-161545.1250,-167083.4375,-167381.2969,-187500.0156,-187500.0156,-187500.0156,-183945.9531,-181066.5625,-182234.9531,6.479370,NaN,NaN,NaN
-480.4731,-187500.0156,-187500.0156,-187500.0156,-174776.1250,-179476.6563,-170299.3438,-176493.8125,-187500.0156,-187500.0156,-187500.0156,-187500.0156,-168579.1250,-165666.1094,-167994.5156,-169348.5938,-187500.0156,-187500.0156,-187500.0156,-186006.7188,-182603.1719,-183581.2656,6.483368,NaN,NaN,NaN
-665.2549,-187500.0156,-187500.0156,-187500.0156,-174893.0313,-179962.7813,-170554.0781,-176753.7813,-187500.0156,-187500.0156,-187500.0156,-187500.0156,-168746.1875,-166479.7813,-168102.6406,-169723.8594,-187500.0156,-187500.0156,-187500.0156,-186271.9219,-182917.1406,-183987.2344,6.487366,NaN,NaN,NaN
-782.6240,-187500.0156,-187500.0156,-187500.0156,-174065.8594,-177562.2031,-169090.1875,-175421.9375,-187500.0156,-187500.0156,-187500.0156,-187500.0156,-167746.3906,-162858.3750,-167266.0781,-167989.7969,-187500.0156,-187500.0156,-187500.0156,-184388.1563,-181570.4063,-182877.2031,6.491364,NaN,NaN,NaN
-752.3150,-187500.0156,-187500.0156,-187500.0156,-173496.7813,-175749.3281,-168029.5938,-174430.6875,-187500.0156,-187500.0156,-187500.0156,-187500.0156,-167031.0000,-160036.2344,-166698.7188,-166662.4688,-187500.0156,-187500.0156,-187500.0156,-183063.4375,-180508.1875,-181864.6094,6.495361,NaN,NaN,NaN
-602.8489,-187500.0156,-187500.0156,-187500.0156,-174794.9531,-179527.7969,-170330.1719,-176522.7656,-187500.0156,-187500.0156,-187500.0156,-187500.0156,-168612.8594,-165749.5625,-168015.9844,-169386.8750,-187500.0156,-187500.0156,-187500.0156,-186064.4688,-182637.7031,-183612.0156,6.499359,NaN,NaN,NaN
-665.6573,-187500.0156,-187500.0156,-187500.0156,-174910.8594,-180002.9688,-170580.8438,-176780.3906,-187500.0156,-187500.0156,-187500.0156,-187500.0156,-168772.5156,-166539.5313,-168122.1563,-169757.6250,-187500.0156,-187500.0156,-187500.0156,-186301.9375,-182940.5000,-184011.0938,6.503357,NaN,NaN,NaN
-657.3424,-187500.0156,-187500.0156,-187500.0156,-174071.3750,-177561.3125,-169095.6719,-175430.2813,-187500.0156,-187500.0156,-187500.0156,-187500.0156,-167750.6563,-162852.1406,-167271.6406,-167997.4219,-187500.0156,-187500.0156,-187500.0156,-184368.2969,-181567.1875,-182880.7969,6.507355,NaN,NaN,NaN
-570.2600,-187500.0156,-187500.0156,-187500.0156,-173471.8438,-175685.3125,-167994.8281,-174401.2500,-187500.0156,-187500.0156,-187500.0156,-187500.0156,-167000.2500,-159942.0781,-166674.9219,-166620.7188,-187500.0156,-187500.0156,-187500.0156,-182995.3594,-180474.3281,-181842.1875,6.511353,NaN,NaN,NaN
-508.0775,-187500.0156,-187500.0156,-187500.0156,-173879.2656,-176758.7813,-168678.5469,-175006.2031,-187500.0156,-187500.0156,-187500.0156,-187500.0156,-167479.0625,-161512.3438,-167094.0625,-167383.7969,-187500.0156,-187500.0156,-187500.0156,-183923.0469,-181050.4219,-182224.7969,6.515350,NaN,NaN,NaN
-580.5642,-187500.0156,-187500.0156,-187500.0156,-174787.4688,-179481.5469,-170311.2188,-176507.7656,-187500.0156,-187500.0156,-187500.0156,-187500.0156,-168598.7813,-165673.6563,-168009.3125,-169363.0000,-187500.0156,-187500.0156,-187500.0156,-186016.1094,-182605.0000,-183584.6406,6.519348,NaN,NaN,NaN
-776.4102,-187500.0156,-187500.0156,-187500.0156,-174913.9531,-180007.3125,-170586.7188,-176786.4375,-187500.0156,-187500.0156,-187500.0156,-187500.0156,-168781.9531,-166551.0156,-168128.3906,-169764.3750,-187500.0156,-187500.0156,-187500.0156,-186316.8438,-182944.6563,-184013.1406,6.523346,NaN,NaN,NaN
-836.4246,-187500.0156,-187500.0156,-187500.0156,-174099.5625,-177624.4063,-169136.9844,-175469.3281,-187500.0156,-187500.0156,-187500.0156,-187500.0156,-167792.1094,-162948.6875,-167303.1875,-168048.7188,-187500.0156,-187500.0156,-187500.0156,-184431.3594,-181601.7656,-182909.3281,6.527344,NaN,NaN,NaN
-721.7155,-187500.0156,-187500.0156,-187500.0156,-173507.0625,-175761.2813,-168044.5000,-174448.7500,-187500.0156,-187500.0156,-187500.0156,-187500.0156,-167049.3750,-160056.2969,-166712.3750,-166682.8906,-187500.0156,-187500.0156,-187500.0156,-183064.6250,-180515.8281,-181878.7344,6.531342,NaN,NaN,NaN
-553.4068,-187500.0156,-187500.0156,-187500.0156,-173890.4688,-176792.9688,-168698.9375,-175026.3125,-187500.0156,-187500.0156,-187500.0156,-187500.0156,-167502.6719,-161570.7656,-167108.2344,-167410.8281,-187500.0156,-187500.0156,-187500.0156,-183958.9844,-181075.4688,-182249.9688,6.535339,NaN,NaN,NaN
-491.8725,-187500.0156,-187500.0156,-187500.0156,-174789.1563,-179477.8594,-170312.6719,-176511.8125,-187500.0156,-187500.0156,-187500.0156,-187500.0156,-168602.7344,-165666.6094,-168012.5625,-169366.1875,-187500.0156,-187500.0156,-187500.0156,-186002.2031,-182602.8438,-183588.2813,6.539337,NaN,NaN,NaN
-602.3571,-187500.0156,-187500.0156,-187500.0156,-174906.0156,-179967.9063,-170570.6875,-176775.3125,-187500.0156,-187500.0156,-187500.0156,-187500.0156,-168766.7344,-166485.3281,-168119.9844,-169744.6563,-187500.0156,-187500.0156,-187500.0156,-186261.4375,-182918.3281,-183996.6875,6.543335,NaN,NaN,NaN
-671.2899,-187500.0156,-187500.0156,-187500.0156,-174072.7813,-177553.1719,-169098.9844,-175436.8281,-187500.0156,-187500.0156,-187500.0156,-187500.0156,-167757.6875,-162843.3125,-167277.3906,-168001.7813,-187500.0156,-187500.0156,-187500.0156,-184359.4219,-181563.0625,-182881.2500,6.547333,NaN,NaN,NaN
-654.8167,-187500.0156,-187500.0156,-187500.0156,-173491.9375,-175706.3594,-168018.3750,-174427.2813,-187500.0156,-187500.0156,-187500.0156,-187500.0156,-167027.1875,-159970.4063,-166698.1250,-166650.2813,-187500.0156,-187500.0156,-187500.0156,-183008.2813,-180481.0313,-181851.4688,6.551331,NaN,NaN,NaN
-624.9324,-187500.0156,-187500.0156,-187500.0156,-173895.2031,-176778.8438,-168698.5781,-175028.2188,-187500.0156,-187500.0156,-187500.0156,-187500.0156,-167505.5469,-161544.2969,-167113.1719,-167408.7656,-187500.0156,-187500.0156,-187500.0156,-183945.6563,-181062.2500,-182238.4219,6.555328,NaN,NaN,NaN
-658.1248,-187500.0156,-187500.0156,-187500.0156,-174800.2969,-179503.3438,-170330.2813,-176528.6250,-187500.0156,-187500.0156,-187500.0156,-187500.0156,-168624.0313,-165710.4219,-168026.1250,-169386.7031,-187500.0156,-187500.0156,-187500.0156,-186041.3125,-182620.5781,-183601.8906,6.559326,NaN,NaN,NaN
-771.6940,-187500.0156,-187500.0156,-187500.0156,-174938.0938,-180041.4844,-170617.8750,-176819.8438,-187500.0156,-187500.0156,-187500.0156,-187500.0156,-168813.1250,-166597.2500,-168154.5156,-169802.4219,-187500.0156,-187500.0156,-187500.0156,-186334.3438,-182960.3125,-184032.1875,6.563324,NaN,NaN,NaN
-759.4229,-187500.0156,-187500.0156,-187500.0156,-174105.6875,-177624.8594,-169146.3281,-175482.4375,-187500.0156,-187500.0156,-187500.0156,-187500.0156,-167802.3125,-162950.3281,-167311.6563,-168060.5313,-187500.0156,-187500.0156,-187500.0156,-184419.5000,-181602.3906,-182917.4844,6.567322,NaN,NaN,NaN
-609.6661,-187500.0156,-187500.0156,-187500.0156,-173493.7031,-175717.6563,-168025.9688,-174435.9375,-187500.0156,-187500.0156,-187500.0156,-187500.0156,-167036.5313,-159993.5313,-166702.4063,-166661.3438,-187500.0156,-187500.0156,-187500.0156,-183016.0313,-180492.3125,-181866.5313,6.571320,NaN,NaN,NaN
-469.7219,-187500.0156,-187500.0156,-187500.0156,-173882.1250,-176736.3750,-168677.9219,-175012.0469,-187500.0156,-187500.0156,-187500.0156,-187500.0156,-167489.1875,-161478.6563,-167101.7969,-167385.0781,-187500.0156,-187500.0156,-187500.0156,-183892.9375,-181036.7031,-182222.9531,6.575317,NaN,NaN,NaN
-479.6013,-187500.0156,-187500.0156,-187500.0156,-174781.5000,-179432.0156,-170296.1719,-176500.3594,-187500.0156,-187500.0156,-187500.0156,-187500.0156,-168594.4688,-165596.7188,-168007.4375,-169345.0625,-187500.0156,-187500.0156,-187500.0156,-185959.0469,-182574.5000,-183567.5781,6.579315,NaN,NaN,NaN
-663.0421,-187500.0156,-187500.0156,-187500.0156,-174912.9219,-179972.7969,-170581.7344,-176788.0313,-187500.0156,-187500.0156,-187500.0156,-187500.0156,-168781.6406,-166495.8750,-168130.9531,-169757.1563,-187500.0156,-187500.0156,-187500.0156,-186269.5781,-182921.5938,-184001.6094,6.583313,NaN,NaN,NaN
-783.5851,-187500.0156,-187500.0156,-187500.0156,-174104.3750,-177607.0000,-169142.1094,-175480.0938,-187500.0156,-187500.0156,-187500.0156,-187500.0156,-167799.4844,-162920.6719,-167311.8125,-168053.8438,-187500.0156,-187500.0156,-187500.0156,-184400.8750,-181588.4063,-182905.7969,6.587311,NaN,NaN,NaN
-754.6172,-187500.0156,-187500.0156,-187500.0156,-173514.0625,-175748.3594,-168051.2344,-174460.7969,-187500.0156,-187500.0156,-187500.0156,-187500.0156,-167061.8906,-160036.0938,-166723.4219,-166690.7188,-187500.0156,-187500.0156,-187500.0156,-183045.2969,-180505.2188,-181876.7188,6.591309,NaN,NaN,NaN
-649.4075,-187500.0156,-187500.0156,-187500.0156,-173900.1875,-176784.2344,-168707.5000,-175039.5469,-187500.0156,-187500.0156,-187500.0156,-187500.0156,-167521.1563,-161557.2344,-167122.4375,-167420.9688,-187500.0156,-187500.0156,-187500.0156,-183951.3125,-181068.1719,-182249.3281,6.595306,NaN,NaN,NaN
-649.4075,-187500.0156,-187500.0156,-187500.0156,-173900.1875,-176784.2344,-168707.5000,-175039.5469,-187500.0156,-187500.0156,-187500.0156,-187500.0156,-167521.1563,-161557.2344,-167122.4375,-167420.9688,-187500.0156,-187500.0156,-187500.0156,-183951.3125,-181068.1719,-182249.3281,6.599304,NaN,NaN,NaN
-601.6195,-187500.0156,-187500.0156,-187500.0156,-174806.9688,-179491.1250,-170333.8594,-176536.4375,-187500.0156,-187500.0156,-187500.0156,-187500.0156,-168633.0000,-165686.6406,-168035.2500,-169391.7500,-187500.0156,-187500.0156,-187500.0156,-186016.0313,-182608.9688,-183598.1563,6.603302,NaN,NaN,NaN
-664.4950,-187500.0156,-187500.0156,-187500.0156,-174933.7344,-180013.2031,-170610.7969,-176817.4219,-187500.0156,-187500.0156,-187500.0156,-187500.0156,-168809.1563,-166554.2656,-168152.3281,-169793.2500,-187500.0156,-187500.0156,-187500.0156,-186296.2813,-182943.1406,-184023.8750,6.607300,NaN,NaN,NaN
-658.1918,-187500.0156,-187500.0156,-187500.0156,-174095.8125,-177590.5781,-169134.1875,-175475.1094,-187500.0156,-187500.0156,-187500.0156,-187500.0156,-167792.7969,-162900.0625,-167304.9844,-168045.4219,-187500.0156,-187500.0156,-187500.0156,-184377.5000,-181582.9219,-182907.3750,6.611298,NaN,NaN,NaN
-572.7411,-187500.0156,-187500.0156,-187500.0156,-173495.6406,-175690.5781,-168022.1875,-174437.3906,-187500.0156,-187500.0156,-187500.0156,-187500.0156,-167036.0781,-159945.8750,-166706.2031,-166656.4375,-187500.0156,-187500.0156,-187500.0156,-182975.3125,-180469.8594,-181852.9375,6.615295,NaN,NaN,NaN
-509.7986,-187500.0156,-187500.0156,-187500.0156,-173879.6250,-176707.7656,-168670.1406,-175008.7188,-187500.0156,-187500.0156,-187500.0156,-187500.0156,-167489.3906,-161435.8906,-167102.1250,-167375.5625,-187500.0156,-187500.0156,-187500.0156,-183866.6875,-181018.3438,-182210.7188,6.619293,NaN,NaN,NaN
-578.8431,-187500.0156,-187500.0156,-187500.0156,-174785.8594,-179431.6563,-170302.5625,-176509.0156,-187500.0156,-187500.0156,-187500.0156,-187500.0156,-168608.4844,-165600.1406,-168016.4219,-169352.9531,-187500.0156,-187500.0156,-187500.0156,-185966.0781,-182575.0781,-183569.7344,6.623291,NaN,NaN,NaN
-775.0914,-187500.0156,-187500.0156,-187500.0156,-174943.7969,-180024.5625,-170623.1563,-176830.1406,-187500.0156,-187500.0156,-187500.0156,-187500.0156,-168823.5000,-166569.7969,-168165.1719,-169807.5781,-187500.0156,-187500.0156,-187500.0156,-186309.9219,-182946.2969,-184025.1719,6.627289,NaN,NaN,NaN
-837.9445,-187500.0156,-187500.0156,-187500.0156,-174127.7656,-177653.6875,-169177.9063,-175516.8281,-187500.0156,-187500.0156,-187500.0156,-187500.0156,-167835.1250,-162993.0781,-167338.3125,-168097.9375,-187500.0156,-187500.0156,-187500.0156,-184438.2344,-181615.5000,-182934.3125,6.631287,NaN,NaN,NaN
-723.1013,-187500.0156,-187500.0156,-187500.0156,-173517.7969,-175752.2969,-168059.5156,-174472.1719,-187500.0156,-187500.0156,-187500.0156,-187500.0156,-167073.7344,-160046.0000,-166730.6250,-166702.0469,-187500.0156,-187500.0156,-187500.0156,-183043.6094,-180510.0469,-181888.3125,6.635284,NaN,NaN,NaN
-555.2397,-187500.0156,-187500.0156,-187500.0156,-173898.8750,-176750.2969,-168698.5625,-175036.5469,-187500.0156,-187500.0156,-187500.0156,-187500.0156,-167517.9375,-161499.6563,-167122.5781,-167410.4688,-187500.0156,-187500.0156,-187500.0156,-183903.6719,-181043.6250,-182235.9063,6.639282,NaN,NaN,NaN
-490.7102,-187500.0156,-187500.0156,-187500.0156,-174792.1406,-179429.5313,-170307.7969,-176516.7656,-187500.0156,-187500.0156,-187500.0156,-187500.0156,-168614.3750,-165591.7969,-168022.1094,-169358.7969,-187500.0156,-187500.0156,-187500.0156,-185951.2344,-182572.0000,-183572.8438,6.643280,NaN,NaN,NaN
-600.1890,-187500.0156,-187500.0156,-187500.0156,-174923.4531,-179972.7969,-170595.8125,-176807.0313,-187500.0156,-187500.0156,-187500.0156,-187500.0156,-168799.0313,-166493.9375,-168145.8125,-169774.0781,-187500.0156,-187500.0156,-187500.0156,-186254.1094,-182919.1094,-184008.0313,6.647278,NaN,NaN,NaN
-672.5193,-187500.0156,-187500.0156,-187500.0156,-174109.6719,-177593.8125,-169149.0625,-175493.0625,-187500.0156,-187500.0156,-187500.0156,-187500.0156,-167808.4844,-162899.1719,-167321.3750,-168062.6719,-187500.0156,-187500.0156,-187500.0156,-184368.1719,-181577.7813,-182907.1406,6.651276,NaN,NaN,NaN
-656.8284,-187500.0156,-187500.0156,-187500.0156,-173508.7031,-175703.1719,-168039.4219,-174456.6406,-187500.0156,-187500.0156,-187500.0156,-187500.0156,-167057.0625,-159966.6250,-166722.1719,-166676.9688,-187500.0156,-187500.0156,-187500.0156,-182988.2969,-180476.3750,-181862.2500,6.655273,NaN,NaN,NaN
-625.7147,-187500.0156,-187500.0156,-187500.0156,-173890.6250,-176722.7500,-168686.1719,-175026.0938,-187500.0156,-187500.0156,-187500.0156,-187500.0156,-167512.1719,-161462.4063,-167117.3438,-167394.8906,-187500.0156,-187500.0156,-187500.0156,-183888.5625,-181029.2813,-182223.5313,6.659271,NaN,NaN,NaN
-657.4318,-187500.0156,-187500.0156,-187500.0156,-174794.6094,-179452.9688,-170327.2188,-176533.1250,-187500.0156,-187500.0156,-187500.0156,-187500.0156,-168640.0313,-165639.4063,-168040.4688,-169384.0781,-187500.0156,-187500.0156,-187500.0156,-185989.1719,-182589.0313,-183585.6406,6.663269,NaN,NaN,NaN
-770.7104,-187500.0156,-187500.0156,-187500.0156,-174885.5469,-180003.3125,-170623.2031,-176822.5625,-187500.0156,-187500.0156,-187500.0156,-187500.0156,-168838.5156,-166594.5156,-168168.9688,-169814.5625,-187500.0156,-187500.0156,-187500.0156,-186324.3750,-182960.3281,-184042.8438,6.667267,NaN,NaN,NaN
-760.1381,-187500.0156,-187500.0156,-187500.0156,-174039.6406,-177598.4688,-169156.6250,-175487.7188,-187500.0156,-187500.0156,-187500.0156,-187500.0156,-167831.3281,-162978.7656,-167326.5156,-168081.4063,-187500.0156,-187500.0156,-187500.0156,-184425.2500,-181616.1406,-182942.5781,6.671265,NaN,NaN,NaN
-611.9237,-187500.0156,-187500.0156,-187500.0156,-173426.0000,-175668.8594,-168026.5938,-174433.8750,-187500.0156,-187500.0156,-187500.0156,-187500.0156,-167060.2188,-159979.8281,-166715.9375,-166671.2969,-187500.0156,-187500.0156,-187500.0156,-182993.8594,-180486.9531,-181876.7813,6.675262,NaN,NaN,NaN
-471.8900,-187500.0156,-187500.0156,-187500.0156,-173788.5156,-176630.8125,-168642.3125,-174975.7813,-187500.0156,-187500.0156,-187500.0156,-187500.0156,-167487.1094,-161385.1719,-167091.9531,-167351.1875,-187500.0156,-187500.0156,-187500.0156,-183833.7969,-181003.3281,-182207.8438,6.679260,NaN,NaN,NaN
-478.0815,-187500.0156,-187500.0156,-187500.0156,-174682.2969,-179322.9844,-170257.2031,-176460.0156,-187500.0156,-187500.0156,-187500.0156,-187500.0156,-168589.9531,-165499.8125,-167995.1875,-169306.3438,-187500.0156,-187500.0156,-187500.0156,-185902.4688,-182540.6563,-183549.2813,6.683258,NaN,NaN,NaN
-662.2151,-187500.0156,-187500.0156,-187500.0156,-174844.9688,-179932.9844,-170589.1406,-176791.3594,-187500.0156,-187500.0156,-187500.0156,-187500.0156,-168811.1406,-166495.0469,-168150.5625,-169774.2500,-187500.0156,-187500.0156,-187500.0156,-186257.2813,-182919.9375,-184010.6563,6.687256,NaN,NaN,NaN
-785.3285,-187500.0156,-187500.0156,-187500.0156,-174035.3438,-177584.0938,-169157.0625,-175490.0000,-187500.0156,-187500.0156,-187500.0156,-187500.0156,-167833.2500,-162953.5156,-167331.8750,-168080.9531,-187500.0156,-187500.0156,-187500.0156,-184406.4063,-181601.8594,-182930.7344,6.691254,NaN,NaN,NaN
