Fp1,Fp2,F3,F4,C3,C4,P3,P4,O1,O2,F7,F8,T7,T8,P7,P8,Fz,Cz,Pz,AFz,Cpz,POz,TimeStamp
94917.7109,-67838.4141,-67906.2734,-67948.8281,106511.1328,-67920.3516,-67814.0078,-67876.1875,-67842.1016,-67841.2266,-67905.5781,-67919.3906,123033.9688,-67994.1641,-67862.9766,-67906.0938,92193.9453,-67945.5938,-67931.2188,-68035.0391,-67943.2891,-67921.5156,35.071289
83989.6484,-68030.0781,-68093.7188,-68136.2734,106562.2969,-68107.9531,-68001.3359,-68063.6953,-68029.6563,-68028.7578,-68093.1094,-68106.8594,123080.7500,-68181.8672,-68050.4609,-68093.6016,92186.1484,-68133.8828,-68119.3047,-68223.1094,-68131.3750,-68109.6953,35.075287
83363.1328,-68017.6094,-68080.7734,-68123.4219,106559.3203,-68095.0156,-67988.4844,-68050.8672,-68016.8281,-68015.8672,-68080.3281,-68094.0469,123068.9688,-68169.0391,-68037.6797,-68080.8594,92108.6094,-68121.1406,-68106.4297,-68210.3438,-68118.6406,-68096.9531,35.079285
93911.5859,-67817.7422,-67885.0625,-67927.6875,106484.8047,-67899.2109,-67792.9063,-67855.0859,-67820.9766,-67820.1094,-67884.5469,-67898.4297,122991.8516,-67973.1250,-67842.0156,-67885.0859,92074.4766,-67925.1406,-67910.7031,-68014.5000,-67922.7031,-67901.0000,35.083282
101437.8672,-67708.3281,-67778.3359,-67821.0469,106424.3438,-67792.3672,-67686.3516,-67748.3594,-67714.1172,-67713.2422,-67777.7031,-67791.5859,122933.8984,-67866.1953,-67735.1484,-67778.1094,92097.5625,-67817.9375,-67803.6797,-67907.4141,-67815.6797,-67793.8672,35.087280
94739.3438,-67864.1875,-67931.9141,-67974.5391,106455.9688,-67946.0391,-67839.7578,-67901.8672,-67867.6953,-67866.8672,-67931.3281,-67945.1172,122964.8984,-68019.9531,-67888.7500,-67931.6406,92162.3203,-67971.5156,-67957.1484,-68060.8359,-67969.1250,-67947.4453,35.091278
84025.6797,-68047.1328,-68110.7266,-68153.3047,106507.6875,-68124.9609,-68018.3906,-68080.7031,-68046.4844,-68045.5703,-68109.9844,-68123.7969,123014.3203,-68198.9219,-68067.4766,-68110.4531,92201.1406,-68150.3750,-68135.8281,-68239.5625,-68147.8281,-68126.1953,35.095276
83583.0234,-68024.3594,-68087.7500,-68130.3984,106496.1328,-68101.9844,-67995.4141,-68057.7266,-68023.4609,-68022.5469,-68086.9219,-68100.7578,123000.7969,-68175.8359,-68044.3594,-68087.3906,92194.1484,-68127.6484,-68113.0703,-68216.8984,-68125.1406,-68103.4609,35.099274
94110.8984,-67870.7578,-67938.3281,-67980.9063,106429.6641,-67952.4063,-67845.9688,-67908.1719,-67874.1094,-67873.1484,-67937.5469,-67951.4688,122934.9922,-68026.2344,-67894.9609,-67937.9922,92182.3438,-67978.4063,-67964.0078,-68067.7891,-67976.1016,-67954.3516,35.103271
101362.1875,-67818.2734,-67888.5078,-67931.0625,106378.2500,-67902.4766,-67796.2344,-67858.3047,-67824.3750,-67823.4609,-67887.8984,-67901.6719,122888.0547,-67976.4766,-67845.3438,-67888.1875,92217.9297,-67928.4922,-67914.2344,-68017.9453,-67926.2344,-67904.5313,35.107269
94344.1406,-68002.9688,-68070.6484,-68113.2734,106402.2109,-68084.7969,-67978.3359,-68040.5391,-68006.6094,-68005.7188,-68070.1328,-68083.8359,122915.9922,-68158.8516,-68027.4453,-68070.4688,92272.3984,-68110.7734,-68096.3516,-68200.1328,-68108.3984,-68086.7422,35.111267
83526.6328,-68200.8281,-68264.1250,-68306.5938,106454.9844,-68278.5000,-68171.6797,-68233.9922,-68200.0234,-68199.1719,-68263.5234,-68277.2656,122966.8906,-68352.5469,-68220.8750,-68264.0156,92258.8125,-68304.4922,-68289.8281,-68393.8125,-68301.7656,-68280.2422,35.115265
83179.7109,-68171.8984,-68234.8906,-68277.3984,106447.6328,-68249.1719,-68142.4844,-68204.8281,-68170.8984,-68170.0469,-68234.3984,-68248.1641,122955.4688,-68323.3984,-68191.7500,-68234.8672,92222.9375,-68275.3906,-68260.7969,-68364.7734,-68272.7266,-68251.2031,35.119263
93842.7422,-67976.8125,-68044.2734,-68086.7422,106369.0234,-68058.3516,-67951.9844,-68014.1406,-67980.1719,-67979.3438,-68043.7578,-68057.4609,122877.1484,-68132.5156,-68001.0703,-68044.2031,92192.1328,-68084.5703,-68070.1563,-68173.9766,-68082.1172,-68060.4141,35.123260
101168.3750,-67924.3125,-67994.2031,-68036.8750,106320.7813,-68008.3984,-67902.1172,-67964.2734,-67930.2109,-67929.3594,-67993.8281,-68007.5469,122830.8359,-68082.4531,-67951.1797,-67994.2500,92213.1875,-68034.5078,-68020.1797,-68124.0234,-68032.1563,-68010.4531,35.127258
94198.2031,-68130.1016,-68197.4922,-68240.1172,106354.8047,-68211.7734,-68105.2500,-68167.4766,-68133.5703,-68132.6328,-68197.0234,-68210.7969,122865.3203,-68285.9609,-68154.3594,-68197.5391,92268.2656,-68237.7031,-68223.0391,-68327.0703,-68234.9766,-68213.4766,35.131256
94198.2031,-68130.1016,-68197.4922,-68240.1172,106354.8047,-68211.7734,-68105.2500,-68167.4766,-68133.5703,-68132.6328,-68197.0234,-68210.7969,122865.3203,-68285.9609,-68154.3594,-68197.5391,92268.2656,-68237.7031,-68223.0391,-68327.0703,-68234.9766,-68213.4766,35.135254
83372.5391,-68392.1328,-68455.0313,-68497.6094,106402.4844,-68469.4219,-68362.5859,-68425.0156,-68391.1719,-68390.1641,-68454.5391,-68468.1953,122912.2813,-68543.8125,-68411.7813,-68455.0313,92240.2344,-68494.9766,-68480.0391,-68584.2031,-68491.9766,-68470.5234,35.139252
82947.2344,-68512.9453,-68575.6875,-68618.1953,106396.8516,-68590.1016,-68483.1250,-68545.6250,-68511.8047,-68510.7578,-68575.1719,-68588.7656,122902.1563,-68664.4453,-68532.3047,-68575.6875,92093.5391,-68615.7813,-68600.7422,-68704.9688,-68612.7891,-68591.3125,35.143250
93280.5781,-68556.1094,-68623.1797,-68665.8047,106327.8906,-68637.6250,-68530.6250,-68593.1641,-68559.3281,-68558.2969,-68622.7344,-68636.3906,122832.2656,-68712.0781,-68580.0234,-68623.2734,92023.3828,-68663.1953,-68648.0859,-68752.3281,-68660.1563,-68638.6719,35.147247
99869.8672,-68845.9844,-68915.1172,-68957.8359,106274.5859,-68929.8047,-68822.5625,-68885.1875,-68851.5938,-68850.6094,-68914.9844,-68928.6172,122783.6250,-69004.6797,-68872.2969,-68915.5859,92064.2188,-68956.3594,-68940.9609,-69045.5000,-68953.0313,-68931.6797,35.151245
99869.8672,-68845.9844,-68915.1172,-68957.8359,106274.5859,-68929.8047,-68822.5625,-68885.1875,-68851.5938,-68850.6094,-68914.9844,-68928.6172,122783.6250,-69004.6797,-68872.2969,-68915.5859,92064.2188,-68956.3594,-68940.9609,-69045.5000,-68953.0313,-68931.6797,35.155243
92278.3438,-69447.9375,-69514.0781,-69556.7500,106315.6406,-69529.1406,-69421.3203,-69484.1094,-69450.8203,-69449.7969,-69514.2344,-69527.6953,122826.7422,-69604.4063,-69471.2344,-69514.9766,92150.5156,-69556.3438,-69540.3203,-69645.1953,-69552.3672,-69531.3984,35.159241
92278.3438,-69447.9375,-69514.0781,-69556.7500,106315.6406,-69529.1406,-69421.3203,-69484.1094,-69450.8203,-69449.7969,-69514.2344,-69527.6953,122826.7422,-69604.4063,-69471.2344,-69514.9766,92150.5156,-69556.3438,-69540.3203,-69645.1953,-69552.3672,-69531.3984,35.163239
81505.1406,-69846.0938,-69906.9297,-69949.4922,106374.9688,-69922.2891,-69813.9297,-69877.0078,-69843.8125,-69842.6719,-69907.0938,-69920.5469,122886.0000,-69997.7266,-69864.1094,-69907.9609,92182.9063,-69949.3594,-69933.0156,-70038.1406,-69944.9531,-69924.2813,35.167236
81326.9063,-69987.0625,-70047.7734,-70090.2813,106357.1484,-70063.1719,-69954.6953,-70017.8672,-69984.8047,-69983.6250,-70047.9922,-70061.4297,122868.9219,-70138.8359,-70005.0391,-70048.9141,92142.3125,-70090.1719,-70073.6563,-70178.8672,-70085.5938,-70064.9375,35.171234
91690.3828,-70193.1953,-70258.8359,-70301.3984,106275.2578,-70274.3281,-70165.7188,-70228.9141,-70196.1875,-70195.0000,-70259.3281,-70272.8125,122799.7891,-70350.4609,-70216.4141,-70260.3359,92088.6016,-70301.6406,-70284.7891,-70390.1797,-70296.7891,-70276.3203,35.175232
98034.5938,-70705.0703,-70772.9766,-70815.5547,106200.9609,-70788.6641,-70679.6797,-70743.0000,-70710.7656,-70709.4922,-70773.9375,-70787.1875,122759.5781,-70865.4688,-70730.8203,-70774.9375,92099.2422,-70816.9375,-70799.5313,-70905.2734,-70811.5781,-70791.3672,35.179230
89889.9922,-71341.2188,-71405.9766,-71448.4453,106222.5078,-71422.0703,-71312.3672,-71375.9609,-71344.1250,-71342.7891,-71407.1563,-71420.2109,122796.7656,-71499.3359,-71363.9297,-71408.3203,92173.5859,-71450.7031,-71432.6406,-71538.8125,-71444.6406,-71424.7031,35.183228
69240.9609,-71702.2500,-71765.9531,-71808.3281,106274.4531,-71782.3125,-71672.2969,-71736.0234,-71704.4844,-71702.9609,-71767.3828,-71780.4141,122853.4063,-71859.8750,-71724.0391,-71768.5625,92202.1953,-71811.2344,-71792.7266,-71899.2813,-71804.8203,-71785.1094,35.187225
68358.5859,-71770.9766,-71834.3906,-71876.8594,106273.2656,-71850.7109,-71740.6484,-71804.4141,-71772.8828,-71771.3359,-71835.7969,-71848.8281,122852.6250,-71928.3125,-71792.4141,-71836.9375,92163.5703,-71879.8125,-71861.2578,-71967.7891,-71873.2813,-71853.6563,35.191223
68358.5859,-71770.9766,-71834.3906,-71876.8594,106273.2656,-71850.7109,-71740.6484,-71804.4141,-71772.8828,-71771.3359,-71835.7969,-71848.8281,122852.6250,-71928.3125,-71792.4141,-71836.9375,92163.5703,-71879.8125,-71861.2578,-71967.7891,-71873.2813,-71853.6563,35.195221
89529.8906,-71718.7422,-71783.1641,-71825.6719,106199.3047,-71799.5469,-71689.5078,-71753.2344,-71721.5391,-71720.1094,-71784.6172,-71797.5547,122785.9531,-71877.0391,-71741.2500,-71785.7109,92121.9063,-71828.6484,-71810.1641,-71916.6484,-71822.0547,-71802.4531,35.199219
96520.9766,-71880.8125,-71947.8906,-71990.2734,106146.6172,-71964.3438,-71854.1250,-71917.9453,-71886.3125,-71884.9531,-71949.4141,-71962.3359,122746.9063,-72042.0391,-71906.1172,-71950.6406,92153.4219,-71993.4922,-71974.7813,-72081.4688,-71986.7656,-71967.2031,35.203217
88304.3438,-72165.9766,-72230.1953,-72272.5938,106189.0625,-72246.7109,-72136.2500,-72200.2422,-72168.7266,-72167.2969,-72231.6953,-72244.6328,122799.5625,-72324.7188,-72188.3750,-72233.1250,92233.7578,-72276.1250,-72257.1953,-72363.9688,-72269.1328,-72249.6875,35.207214
61030.3398,-72318.5938,-72381.6328,-72424.0781,106240.9922,-72398.1719,-72287.6875,-72351.7422,-72320.2500,-72318.7734,-72383.1484,-72396.1563,122857.3438,-72476.2891,-72339.7656,-72384.6484,92261.9219,-72427.8984,-72408.8281,-72515.6484,-72420.7422,-72401.3906,35.211212
61608.3555,-72283.4844,-72346.5781,-72389.0078,106225.3438,-72363.1875,-72252.6563,-72316.6953,-72285.1172,-72283.6641,-72348.1016,-72361.0469,122845.5625,-72441.0859,-72304.6953,-72349.4844,92215.3828,-72392.5625,-72373.5391,-72480.3125,-72385.4922,-72366.0938,35.215210
89068.9922,-72113.4063,-72177.8672,-72220.1797,106158.8672,-72194.3906,-72083.9688,-72147.8750,-72116.1563,-72114.7266,-72179.2109,-72192.0859,122785.0313,-72272.0859,-72135.8750,-72180.5781,92164.7109,-72222.9766,-72204.1094,-72310.8438,-72216.1797,-72196.6250,35.219208
96437.0469,-72052.5000,-72119.4453,-72161.7578,106112.1797,-72135.8281,-72025.5625,-72089.5156,-72057.6641,-72056.2344,-72120.6719,-72133.5703,122753.7422,-72213.4531,-72077.3359,-72122.0156,92201.7266,-72164.3281,-72145.4844,-72252.3281,-72157.5547,-72138.0391,35.223206
87693.5547,-72246.2188,-72310.1250,-72352.5703,106144.8125,-72326.8672,-72216.2500,-72280.3125,-72248.5469,-72247.0078,-72311.5078,-72324.4766,122803.3438,-72404.4922,-72268.0625,-72312.8984,92293.2109,-72355.6328,-72336.6328,-72443.5234,-72348.6172,-72329.1953,35.227203
57152.7148,-72448.9063,-72511.4453,-72553.8906,106203.3281,-72528.2578,-72417.5000,-72481.5859,-72450.0703,-72448.4844,-72512.9922,-72525.8906,122870.8438,-72606.0625,-72469.4297,-72514.3516,92322.8906,-72556.9375,-72537.7344,-72644.7109,-72549.7344,-72530.3828,35.231201
88934.7266,-72210.9297,-72275.3047,-72317.7734,106112.8672,-72292.0625,-72181.4688,-72245.5078,-72213.9453,-72212.3828,-72276.8906,-72289.7188,122800.9922,-72369.8516,-72233.4141,-72278.1875,92218.0000,-72320.8750,-72301.8359,-72408.6719,-72313.9453,-72294.4375,35.235199
87950.0000,-72282.9453,-72347.0313,-72389.4531,106112.2188,-72363.7891,-72253.1719,-72317.0781,-72285.4688,-72283.9766,-72348.4844,-72361.3594,122842.9453,-72441.4844,-72304.9609,-72349.8438,92348.2188,-72392.1797,-72373.2500,-72480.0000,-72385.1797,-72365.6953,35.239197
58656.2266,-72449.5781,-72512.3906,-72554.7891,106160.8594,-72529.2656,-72418.3984,-72482.4609,-72450.9609,-72449.4453,-72513.8828,-72526.7578,122909.6484,-72607.1172,-72470.3203,-72515.3125,92378.7734,-72557.8281,-72538.7656,-72645.7813,-72550.7656,-72531.4063,35.243195
60107.7266,-72436.1641,-72499.3125,-72541.6484,106152.9219,-72516.0938,-72405.2734,-72469.4063,-72438.0469,-72436.5469,-72500.8984,-72513.7500,122915.4375,-72594.0859,-72457.3984,-72502.3516,92330.3828,-72545.2891,-72526.1797,-72633.2422,-72538.2500,-72518.9141,35.247192
89064.9688,-72235.2734,-72299.8203,-72342.1797,106080.4375,-72316.5156,-72205.8750,-72269.9375,-72238.3984,-72236.8984,-72301.4297,-72314.1953,122861.6094,-72394.2344,-72257.8203,-72302.6641,92284.5391,-72345.4219,-72326.4688,-72433.4219,-72338.4922,-72319.1094,35.251190
87405.2422,-72334.8281,-72398.8438,-72441.3516,106076.5938,-72415.7188,-72304.8047,-72368.8438,-72337.3984,-72335.8281,-72400.3125,-72413.0547,122911.3906,-72493.2969,-72356.7734,-72401.6797,92458.9453,-72444.1016,-72425.1250,-72532.0078,-72437.0859,-72417.7734,35.255188
57097.5508,-72491.1563,-72553.9609,-72596.2734,106131.6875,-72570.8359,-72459.8125,-72523.9688,-72492.6953,-72491.0859,-72555.6406,-72568.2656,122984.7500,-72648.6172,-72512.0313,-72556.9531,92512.1719,-72600.0469,-72580.8984,-72687.8672,-72592.9688,-72573.5625,35.259186
59993.1094,-72446.0703,-72509.1875,-72551.5000,106114.1641,-72525.9297,-72415.1094,-72479.2422,-72447.9453,-72446.2734,-72510.8438,-72523.5156,122983.0078,-72603.8750,-72467.3281,-72512.0938,92482.5547,-72555.3047,-72536.2109,-72643.1875,-72548.2188,-72528.7266,35.263184
89408.2969,-72252.1484,-72316.8281,-72359.1172,106044.3125,-72333.5078,-72222.7734,-72286.9063,-72255.5625,-72253.8438,-72318.4844,-72331.2734,122929.8516,-72411.3828,-72274.9453,-72319.7813,92458.6563,-72362.5156,-72343.6797,-72450.5859,-72355.7656,-72336.2578,35.267181
96626.2969,-72172.9063,-72239.9609,-72282.3438,106003.8594,-72256.5703,-72146.0391,-72210.1719,-72178.8281,-72177.2656,-72241.7734,-72254.6016,122910.2031,-72334.6484,-72198.2344,-72243.0000,92534.6328,-72285.5391,-72266.7891,-72373.6250,-72278.8984,-72259.3438,35.271179
87489.3750,-72342.3594,-72406.3984,-72448.7500,106038.3672,-72423.2031,-72312.3828,-72376.5781,-72345.1250,-72343.6094,-72408.0078,-72420.8594,122963.8516,-72501.1016,-72364.4375,-72409.2578,92660.1563,-72451.3203,-72432.4141,-72539.3203,-72444.4844,-72425.0156,35.275177
56460.4805,-72521.3281,-72583.8672,-72626.3125,106095.1016,-72600.7422,-72489.8125,-72554.0078,-72522.8281,-72521.2813,-72585.6563,-72598.4844,123029.4922,-72678.8828,-72542.1563,-72587.0391,92708.9766,-72629.2188,-72610.1328,-72717.1250,-72622.2266,-72602.7344,35.279175
59101.0938,-72497.9922,-72561.0000,-72603.4453,106088.1016,-72577.7656,-72466.9688,-72531.0469,-72499.9375,-72498.3750,-72562.8359,-72575.6406,123026.6328,-72656.0000,-72519.2734,-72564.2422,92674.0391,-72606.5547,-72587.5313,-72694.5313,-72599.5781,-72580.1094,35.283173
89181.2031,-72315.3125,-72379.8438,-72422.2422,106011.3281,-72396.5391,-72285.8281,-72349.8672,-72318.5313,-72316.9688,-72381.4766,-72394.3438,122959.6719,-72474.4766,-72337.9531,-72382.7891,92639.1484,-72425.3281,-72406.4141,-72513.3906,-72418.4844,-72399.0156,35.287170
96390.6406,-72290.7891,-72357.7109,-72400.0469,105974.1094,-72374.3203,-72263.6094,-72327.7422,-72296.3984,-72294.8125,-72359.3438,-72372.1953,122936.6719,-72452.2813,-72315.8047,-72360.6172,92707.4141,-72403.4219,-72384.6484,-72491.4844,-72396.5859,-72377.2266,35.291168
86392.9297,-72598.2422,-72662.1016,-72704.4766,106018.4531,-72678.9766,-72567.8672,-72632.1484,-72600.9453,-72599.3828,-72663.8203,-72676.6250,122992.6797,-72757.0703,-72620.2578,-72665.2500,92821.2734,-72708.1172,-72689.0078,-72796.1406,-72701.0156,-72681.8594,35.295166
47830.9219,-73006.2500,-73067.6484,-73110.0078,106061.2344,-73084.8828,-72973.3438,-73037.8125,-73006.7656,-73005.0156,-73069.5703,-73082.3594,123041.5469,-73163.1328,-73025.8984,-73071.0000,92856.3828,-73113.6953,-73094.0938,-73201.6484,-73106.0938,-73087.2031,35.299164
20421.0664,-74900.9609,-74959.9688,-75002.2578,106046.8828,-74978.2500,-74865.0625,-74930.2422,-74900.2656,-74898.1875,-74962.7656,-74975.1016,123029.1641,-75058.2969,-74918.6172,-74964.6172,92794.8047,-75008.8984,-74987.3047,-75096.0938,-74999.1953,-74981.3594,35.303162
15989.8115,-80310.3984,-80366.9688,-80408.9922,105975.0469,-80388.2891,-80269.8281,-80337.3047,-80310.3984,-80307.6719,-80372.2656,-80383.4844,122965.7266,-80473.2266,-80326.6016,-80375.2813,92699.3438,-80423.4063,-80395.9141,-80508.3438,-80407.6250,-80392.6953,35.307159
-9375.4834,-84340.7734,-84396.2031,-84438.1406,105923.5938,-84419.7891,-84297.2969,-84366.6797,-84342.0234,-84338.7422,-84403.3359,-84413.7266,122932.3125,-84508.2969,-84356.4844,-84407.2266,92704.7031,-84458.6094,-84426.6484,-84541.8906,-84438.2266,-84425.4219,35.311157
-68499.9844,-84931.5781,-84989.7109,-85031.6641,105965.5938,-85013.6016,-84890.6250,-84960.2969,-84935.8672,-84932.4922,-84997.0859,-85007.3906,122988.0078,-85102.7031,-84950.0781,-85001.1563,92797.4688,-85053.0313,-85020.3984,-85136.1406,-85032.0000,-85019.4844,35.315155
-84817.8281,-84870.8438,-84928.8906,-84970.8672,106026.6328,-84952.8750,-84829.8750,-84899.5234,-84874.8906,-84871.6016,-84936.2031,-84946.5703,123053.5703,-85041.7500,-84889.2656,-84940.2891,92825.1172,-84991.3906,-84958.8906,-85074.5156,-84970.4688,-84957.9297,35.319153
-83429.7188,-84470.8828,-84528.7500,-84570.8203,106008.1719,-84552.6016,-84429.9375,-84499.3594,-84474.6172,-84471.2813,-84535.9453,-84546.2969,123040.2500,-84641.0000,-84489.0078,-84539.8359,92770.8672,-84591.1094,-84559.0391,-84674.3281,-84570.5703,-84557.8516,35.323151
-44119.9961,-83916.1797,-83973.6484,-84015.7109,105933.4766,-83997.0938,-83875.0313,-83944.1875,-83919.1484,-83915.9141,-83980.5313,-83991.1250,122975.5625,-84085.1563,-83933.9063,-83984.4219,92722.3672,-84035.3359,-84003.7500,-84118.6875,-84015.2891,-84002.2344,35.327148
9549.0674,-83729.0938,-83786.5391,-83828.5156,105902.3125,-83809.7813,-83687.9688,-83756.9922,-83732.0469,-83728.8047,-83793.4688,-83803.9922,122959.5547,-83897.8281,-83746.7969,-83797.2891,92786.2031,-83848.2969,-83816.9844,-83931.8906,-83828.4688,-83815.3984,35.331146
-53485.9102,-83788.3281,-83846.4453,-83888.3281,105941.0703,-83869.7578,-83747.8672,-83816.8906,-83791.8594,-83788.4609,-83853.1484,-83863.6953,123014.0078,-83957.5547,-83806.5469,-83857.0625,92901.1094,-83908.1797,-83876.8594,-83991.7031,-83888.3984,-83875.2969,35.335144
-83325.1094,-83732.8047,-83790.9219,-83832.7813,105987.8359,-83814.1875,-83692.3281,-83761.3750,-83736.1172,-83732.7188,-83797.5156,-83808.0000,123068.2734,-83901.7656,-83750.8438,-83801.2891,92940.3594,-83852.0938,-83820.9141,-83935.5781,-83832.4297,-83819.2422,35.339142
-81304.6484,-83433.5625,-83491.4531,-83533.3828,105981.3984,-83514.5859,-83393.0391,-83461.8828,-83436.5313,-83433.2891,-83497.9766,-83508.5469,123064.5859,-83601.9609,-83451.4453,-83501.6875,92897.8047,-83552.2500,-83521.3828,-83635.9297,-83532.9609,-83519.6172,35.343140
-29736.8496,-83092.2969,-83150.5234,-83192.4531,105910.8984,-83173.4063,-83052.2422,-83120.9063,-83095.3750,-83092.3203,-83156.8438,-83167.5781,123004.4609,-83260.5156,-83110.4453,-83160.4922,92867.0938,-83211.3359,-83180.8047,-83295.1563,-83192.3438,-83178.8594,35.347137
29615.8809,-82973.7891,-83034.4688,-83076.3828,105868.9922,-83057.1563,-82936.1250,-83004.7422,-82979.3516,-82976.3125,-83040.8828,-83051.6172,122978.9141,-83144.3984,-82994.3906,-83044.4609,92948.0078,-83095.3125,-83064.8203,-83179.0859,-83076.4453,-83062.8125,35.351135
-43601.3672,-83079.9531,-83138.2500,-83180.3125,105917.4453,-83161.2031,-83040.0547,-83108.7891,-83083.3125,-83080.2266,-83144.8438,-83155.5078,123036.3828,-83248.3984,-83098.3281,-83148.4219,93070.7188,-83199.3125,-83168.7109,-83283.0859,-83180.3594,-83166.7500,35.355133
-82220.4844,-83018.3125,-83076.1328,-83118.1094,105969.5703,-83099.1094,-82977.8984,-83046.6719,-83021.0625,-83018.0156,-83082.6406,-83093.2969,123089.1094,-83186.1719,-83036.1016,-83086.1484,93117.3438,-83136.8828,-83106.4453,-83220.7266,-83117.9531,-83104.4531,35.359131
-77885.8594,-82589.4219,-82647.2969,-82689.2266,105946.4375,-82669.9766,-82549.1250,-82617.7031,-82591.7500,-82588.8438,-82653.3750,-82664.1484,123065.3047,-82756.7031,-82607.0391,-82656.9063,93076.5938,-82706.3047,-82676.3047,-82790.3203,-82687.8828,-82674.0469,35.363129
-6460.3022,-82130.3438,-82190.5781,-82232.5547,105877.9531,-82212.7969,-82092.5234,-82160.8516,-82134.9688,-82132.1094,-82196.6172,-82207.5000,123000.8828,-82299.4766,-82150.4141,-82200.0156,93049.4375,-82249.2344,-82219.6797,-82333.4063,-82231.3281,-82217.2266,35.367126
60557.0859,-81993.9063,-82056.4922,-82098.5156,105840.0859,-82078.5313,-81958.5234,-82026.7891,-82000.8359,-81997.9063,-82062.4844,-82073.5000,122973.7734,-82165.2109,-82016.3047,-82065.8359,93134.5547,-82115.3906,-82086.0391,-82199.6328,-82097.6641,-82083.4688,35.371124
-25273.5645,-82112.2188,-82171.3125,-82213.4219,105881.8203,-82193.6641,-82073.4141,-82141.6953,-82115.9688,-82112.9063,-82177.4609,-82188.5000,123024.1328,-82280.2109,-82131.2578,-82180.9453,93267.1172,-82230.7656,-82201.3516,-82314.9688,-82212.9531,-82198.8281,35.375122
-80157.0156,-82173.3672,-82231.3750,-82273.3281,105937.0703,-82253.7266,-82133.3828,-82201.6875,-82175.8750,-82172.8359,-82237.4297,-82248.4297,123078.0625,-82340.2031,-82191.1641,-82240.9141,93318.8438,-82290.9375,-82261.4609,-82375.1406,-82273.0547,-82259.0469,35.379120
-75655.4453,-81974.5078,-82032.1719,-82074.1953,105921.4688,-82054.5234,-81934.3594,-82002.6719,-81976.6094,-81973.5859,-82038.1641,-82049.0938,123060.8359,-82140.7578,-81992.0938,-82041.6719,93282.9922,-82091.1797,-82061.8359,-82175.4219,-82073.4531,-82059.3750,35.383118
2979.6885,-81665.7188,-81725.6641,-81767.7734,105843.6875,-81747.7891,-81627.9453,-81696.1172,-81669.9609,-81667.0391,-81731.5000,-81742.5859,122992.2813,-81833.8672,-81685.5625,-81734.8984,93246.7344,-81783.3516,-81754.4297,-81867.7500,-81766.0781,-81751.7500,35.387115
67771.1563,-81570.0313,-81631.0078,-81673.1563,105804.9297,-81652.9766,-81533.2578,-81601.3672,-81575.1484,-81572.2422,-81636.7734,-81647.8828,122970.7813,-81738.9375,-81590.8359,-81640.1016,93323.1797,-81689.0703,-81660.3281,-81773.5391,-81672.0234,-81657.5547,35.391113
-17903.8359,-81667.0547,-81726.5156,-81768.5781,105850.6641,-81748.5781,-81628.7891,-81696.8750,-81670.5859,-81667.7266,-81732.2578,-81743.2969,123029.9219,-81834.4688,-81686.1875,-81735.6563,93454.2031,-81784.8516,-81755.9922,-81869.2969,-81767.6172,-81753.3125,35.395111
-78728.5625,-81618.4844,-81676.3125,-81718.3359,105901.6484,-81698.3750,-81578.5469,-81646.7656,-81620.3672,-81617.4844,-81682.0547,-81693.0547,123086.2656,-81784.2891,-81635.9688,-81685.3203,93497.7031,-81734.9844,-81706.2188,-81819.5156,-81717.7969,-81703.4688,35.399109
-71678.7578,-81341.0547,-81398.8828,-81440.9063,105888.6563,-81420.8516,-81301.2734,-81369.2891,-81342.7109,-81339.8281,-81404.4453,-81415.5313,123079.8984,-81506.4141,-81358.4219,-81407.6641,93452.7969,-81457.3750,-81428.7422,-81541.9297,-81440.4141,-81425.8828,35.403107
11301.7793,-81374.7422,-81437.0547,-81479.0547,105815.1250,-81458.8750,-81339.4219,-81407.3750,-81380.9766,-81378.0469,-81442.6875,-81453.7578,123023.6172,-81544.6172,-81396.6875,-81446.0234,93414.7344,-81495.2813,-81466.6953,-81579.7500,-81478.2734,-81463.7031,35.407104
32771.6367,-83163.0391,-83226.6250,-83268.6484,105770.6875,-83249.3828,-83128.2813,-83197.1250,-83171.7578,-83168.5781,-83233.1563,-83243.8594,123004.2188,-83336.9141,-83186.7109,-83236.8672,93467.9297,-83286.7109,-83256.2891,-83370.5938,-83267.7813,-83254.1875,35.411102
-61390.9414,-84576.5625,-84635.1641,-84677.1016,105820.1484,-84658.8359,-84536.2188,-84605.7109,-84581.0313,-84577.7031,-84642.2344,-84652.6719,123073.5938,-84747.4375,-84595.3359,-84646.1875,93573.3594,-84697.0859,-84665.1875,-84780.5469,-84676.7891,-84663.9141,35.415100
-83503.1641,-83589.3516,-83647.4688,-83689.3750,105875.4063,-83670.6641,-83548.9375,-83617.9609,-83592.7500,-83589.4609,-83653.9922,-83664.6797,123145.8828,-83758.2891,-83607.5234,-83657.8125,93617.5078,-83708.1484,-83677.2422,-83791.9688,-83688.8359,-83675.5391,35.419098
-77708.3203,-82257.5703,-82315.4844,-82357.4609,105853.5000,-82338.0781,-82217.5781,-82285.9297,-82260.0469,-82257.0313,-82321.5156,-82332.4219,123143.0625,-82424.4219,-82275.3125,-82324.9844,93570.4531,-82375.0938,-82345.5703,-82459.3828,-82357.0781,-82343.1563,35.423096
-34097.0703,-83182.5469,-83239.2813,-83281.2969,105779.9844,-83262.2813,-83140.9297,-83209.7266,-83184.1563,-83180.9844,-83245.5859,-83256.3125,123095.8125,-83349.2969,-83198.9766,-83249.2266,93239.1172,-83299.0000,-83268.8516,-83383.2266,-83280.4063,-83266.8828,35.427094
-36344.2266,-86069.6172,-86125.9141,-86167.8047,105741.5391,-86150.5703,-86026.3594,-86096.4766,-86072.5625,-86069.0313,-86133.5391,-86143.7344,123088.5703,-86240.2266,-86086.2188,-86137.8984,86214.0469,-86183.2266,-86155.9375,-86272.0078,-86167.3359,-86155.4219,35.431091
-82289.3047,-87112.7891,-87170.5000,-87212.4141,105782.5547,-87195.8047,-87070.5938,-87141.2031,-87117.9531,-87114.1797,-87178.6406,-87188.6797,123154.7578,-87286.4453,-87131.0547,-87183.3359,80865.6172,-87225.7344,-87201.3047,-87317.9609,-87212.6172,-87201.3047,35.435089
-85737.9375,-85731.9688,-85789.9297,-85831.9219,105843.3047,-85814.5156,-85690.6406,-85760.7109,-85736.5703,-85733.0156,-85797.5234,-85807.8047,123228.8750,-85903.8984,-85750.2500,-85801.7969,90567.6094,-85849.6719,-85821.0156,-85936.8906,-85832.5313,-85820.3438,35.439087
-81673.3594,-83800.3516,-83858.1797,-83900.1719,105835.0391,-83881.6016,-83759.5625,-83828.8047,-83803.5234,-83800.3516,-83864.8594,-83875.5000,123230.9297,-83969.2891,-83818.1250,-83868.7031,93679.2656,-83919.8672,-83888.8438,-84003.6406,-83900.4219,-83887.2813,35.443085
-49253.3398,-84062.4688,-84119.8672,-84161.8281,105751.5547,-84143.4063,-84021.0781,-84090.3438,-84065.4453,-84062.1563,-84126.6875,-84137.1484,123168.4375,-84231.1797,-84079.9063,-84130.5781,93175.7656,-84181.3125,-84150.6719,-84265.6953,-84162.1406,-84149.1953,35.447083
-47511.2227,-86512.4688,-86569.6406,-86611.5781,105712.8359,-86594.5859,-86469.8438,-86540.2969,-86516.8750,-86513.2266,-86577.7344,-86587.7500,123156.7891,-86684.7344,-86530.2578,-86582.1875,84721.6016,-86628.0703,-86601.0938,-86717.5469,-86612.4922,-86600.9141,35.451080
-83595.0781,-87076.1563,-87133.8906,-87175.8047,105764.1406,-87159.0625,-87033.9141,-87104.5625,-87081.4063,-87077.7656,-87142.1875,-87152.1719,123224.8750,-87249.8984,-87094.5781,-87146.7422,82232.2656,-87189.5938,-87164.4219,-87281.1484,-87175.7813,-87164.5391,35.455078
-84925.4063,-84919.5078,-84977.5938,-85019.4609,105814.8047,-85001.5391,-84878.4453,-84948.2031,-84923.7266,-84920.3516,-84984.8125,-84995.2344,123282.6328,-85090.2969,-84937.8750,-84988.9531,92344.0156,-85037.0781,-85007.3438,-85122.8359,-85018.8359,-85006.4063,35.459076
-76554.9688,-82385.7813,-82443.6484,-82485.6484,105799.9453,-82466.2891,-82345.5703,-82414.1641,-82388.2813,-82385.2656,-82449.7969,-82460.6328,123271.5000,-82552.6563,-82403.4609,-82453.3047,93877.0078,-82502.4531,-82472.9297,-82586.7891,-82484.5703,-82470.8047,35.463074
-31442.5996,-83162.3906,-83218.9141,-83260.9609,105726.6094,-83242.0313,-83120.5234,-83189.4766,-83164.1563,-83160.9375,-83225.5078,-83236.2813,123208.8672,-83329.2188,-83178.9531,-83229.1797,93557.4219,-83278.5703,-83248.6641,-83362.9922,-83260.2266,-83246.8125,35.467072
-39328.5430,-86251.1797,-86307.4844,-86349.4766,105680.5625,-86332.3594,-86207.8594,-86278.1797,-86254.4141,-86250.8438,-86315.4141,-86325.5000,123185.4688,-86422.2578,-86267.9844,-86319.7266,87426.8359,-86365.2578,-86338.0156,-86454.3281,-86349.5703,-86337.6797,35.471069
-82388.2578,-86511.0625,-86568.6797,-86610.5938,105725.6016,-86593.6016,-86468.9063,-86539.3359,-86515.7109,-86512.0469,-86576.5547,-86586.6094,123250.2656,-86683.7031,-86529.1172,-86581.0469,87140.5313,-86625.6094,-86598.9219,-86715.2656,-86610.4141,-86598.6563,35.475067
-83832.6094,-83826.7266,-83884.7734,-83926.7969,105789.4375,-83908.1797,-83786.1406,-83855.3828,-83830.2578,-83826.9766,-83891.4375,-83902.0078,123324.2500,-83995.9297,-83844.8359,-83895.2578,93707.0234,-83945.1016,-83914.7266,-84029.5703,-83926.2578,-83913.2266,35.479065
-37618.2969,-83348.8438,-83406.1563,-83448.2422,105686.7969,-83429.3594,-83307.6563,-83376.6719,-83351.3984,-83348.2188,-83412.7266,-83423.3672,123249.4375,-83516.5938,-83366.2109,-83416.4609,93294.1406,-83466.4141,-83436.6250,-83551.1953,-83448.2891,-83434.8984,35.483063
-50680.6563,-86829.4141,-86886.9688,-86928.9453,105649.0703,-86912.1172,-86787.0391,-86857.5781,-86834.2891,-86830.5781,-86895.1094,-86905.0781,123232.7188,-87002.4219,-86847.5859,-86899.5313,83770.8516,-86945.5781,-86918.3125,-87035.0938,-86929.8906,-86918.2656,35.487061
-84735.1484,-87337.8984,-87395.6719,-87437.6953,105692.8594,-87421.0859,-87295.5625,-87366.4375,-87343.0625,-87339.5078,-87403.9453,-87413.8281,123294.8125,-87511.7500,-87356.2891,-87408.4844,83103.7578,-87452.4688,-87426.5625,-87543.6016,-87438.0547,-87426.8750,35.491058
-85694.4844,-85688.6484,-85746.6719,-85788.7188,105743.6172,-85771.1719,-85647.2734,-85717.3984,-85693.1406,-85689.7422,-85754.1641,-85764.3594,123356.3906,-85860.3750,-85707.0234,-85758.4063,93027.4453,-85808.1172,-85777.1641,-85893.3047,-85788.6328,-85776.6719,35.495056
-82174.0156,-84337.3516,-84395.1797,-84437.0859,105733.5625,-84418.8047,-84296.2969,-84365.6953,-84340.6641,-84337.4219,-84401.9922,-84412.4141,123354.3750,-84506.7344,-84355.1641,-84405.8203,94173.1016,-84456.9375,-84425.4609,-84540.7109,-84436.9766,-84424.1875,35.499054
-2519.4885,-84672.9609,-84729.2656,-84771.2891,105611.5000,-84753.1641,-84630.3203,-84699.8750,-84675.0859,-84671.8281,-84736.3125,-84746.7734,123266.8047,-84841.5000,-84689.4375,-84740.3125,94203.5000,-84791.1641,-84759.3516,-84874.7109,-84770.8672,-84758.2813,35.503052
-66498.0469,-84953.9297,-85011.9766,-85053.9922,105665.5469,-85036.0469,-84912.9531,-84982.6016,-84957.9688,-84954.6172,-85019.0781,-85029.5234,123339.1797,-85124.6250,-84972.0781,-85023.1484,94330.8828,-85075.0078,-85042.9063,-85158.4453,-85054.4453,-85042.0156,35.507050
-84598.0625,-84656.0469,-84714.1328,-84756.1563,105718.9844,-84738.0078,-84615.0313,-84684.7031,-84659.8672,-84656.5781,-84721.0859,-84731.5078,123406.9063,-84826.2344,-84674.1250,-84725.1094,94373.6641,-84776.2734,-84744.4688,-84859.8438,-84755.9766,-84743.3750,35.511047
-81803.9141,-84129.4609,-84187.3047,-84229.2813,105696.9063,-84210.8438,-84088.5313,-84157.9375,-84132.7031,-84129.5469,-84193.9453,-84204.4531,123397.9453,-84298.5703,-84147.2031,-84197.8750,94324.9844,-84248.3516,-84217.1484,-84332.1641,-84228.6797,-84215.7578,35.515045
-81803.9141,-84129.4609,-84187.3047,-84229.2813,105696.9063,-84210.8438,-84088.5313,-84157.9375,-84132.7031,-84129.5469,-84193.9453,-84204.4531,123397.9453,-84298.5703,-84147.2031,-84197.8750,94324.9844,-84248.3516,-84217.1484,-84332.1641,-84228.6797,-84215.7578,35.519043
-29861.3027,-83809.6250,-83867.5625,-83909.4766,105626.7188,-83890.8750,-83768.9297,-83838.0859,-83812.8281,-83809.6953,-83874.0000,-83884.7734,123349.6172,-83978.4531,-83827.4688,-83877.8906,94297.4922,-83928.8047,-83897.9844,-84012.7578,-83909.5156,-83896.4219,35.523041
20544.6270,-83729.2266,-83788.5547,-83830.5078,105592.7188,-83811.7500,-83689.8906,-83759.0703,-83733.7656,-83730.6172,-83795.1016,-83805.7656,123352.0313,-83899.4141,-83748.4531,-83798.9453,94387.5469,-83849.9297,-83819.1953,-83933.9688,-83830.7500,-83817.5859,35.527039
20544.6270,-83729.2266,-83788.5547,-83830.5078,105592.7188,-83811.7500,-83689.8906,-83759.0703,-83733.7656,-83730.6172,-83795.1016,-83805.7656,123352.0313,-83899.4141,-83748.4531,-83798.9453,94387.5469,-83849.9297,-83819.1953,-83933.9688,-83830.7500,-83817.5859,35.531036
-53607.0586,-83811.1016,-83869.2422,-83911.2188,105639.6641,-83892.6641,-83770.6250,-83839.8047,-83814.5703,-83811.3516,-83875.7891,-83886.4063,123425.2344,-83980.1719,-83829.1406,-83879.7031,94520.0469,-83930.8438,-83899.9297,-84014.8203,-83911.5078,-83898.3906,35.535034
-83413.8438,-83734.0547,-83792.0859,-83834.0781,105695.8750,-83815.3984,-83693.5547,-83762.7109,-83737.3672,-83734.1484,-83798.5625,-83809.2734,123493.8750,-83902.8828,-83751.9609,-83802.4297,94554.5391,-83853.5078,-83822.7734,-83937.5234,-83834.2578,-83821.1406,35.539032
-79253.4063,-83318.9219,-83376.7422,-83418.7422,105674.4141,-83399.8750,-83278.4609,-83347.2813,-83321.9375,-83318.7813,-83383.2656,-83394.0000,123483.3047,-83487.1406,-83336.7109,-83387.0234,94500.3984,-83437.4922,-83407.2500,-83521.6719,-83418.7422,-83405.4453,35.543030
-13883.9863,-82884.4922,-82943.9453,-82985.9453,105595.4688,-82966.7891,-82845.7734,-82914.5078,-82889.0078,-82885.9219,-82950.4063,-82961.2266,123413.9219,-83053.9375,-82903.9844,-82954.1172,94455.8516,-83004.2500,-82974.4141,-83088.5156,-82985.9688,-82972.3984,35.547028
40152.6953,-82831.4922,-82894.6406,-82936.5938,105561.1641,-82917.2813,-82796.4219,-82865.1797,-82839.6328,-82836.6328,-82901.0938,-82911.8672,123397.2969,-83004.5391,-82854.7188,-82904.6719,94531.3594,-82954.7891,-82925.0781,-83039.2344,-82936.6563,-82923.0703,35.551025
40152.6953,-82831.4922,-82894.6406,-82936.5938,105561.1641,-82917.2813,-82796.4219,-82865.1797,-82839.6328,-82836.6328,-82901.0938,-82911.8672,123397.2969,-83004.5391,-82854.7188,-82904.6719,94531.3594,-82954.7891,-82925.0781,-83039.2344,-82936.6563,-82923.0703,35.555023
-44377.8438,-82954.6094,-83013.1250,-83055.2344,105610.3125,-83036.1875,-82915.0000,-82983.7969,-82958.2969,-82955.2344,-83019.7188,-83030.5547,123466.2734,-83123.2734,-82973.3594,-83023.2734,94657.5313,-83073.4063,-83043.7031,-83157.9219,-83055.1875,-83041.7578,35.559021
-82229.4297,-82847.6094,-82905.5000,-82947.5703,105657.5625,-82928.5938,-82807.4219,-82876.1563,-82850.5156,-82847.3828,-82911.8906,-82922.8438,123527.2891,-83015.3359,-82865.5547,-82915.5625,94686.3672,-82965.6953,-82936.0313,-83050.1641,-82947.5859,-82934.1094,35.563019
-75895.1875,-82488.0391,-82545.7031,-82587.7891,105638.6563,-82568.5469,-82447.7578,-82516.3125,-82490.5391,-82487.5234,-82552.0313,-82562.9141,123515.1328,-82654.9609,-82505.6719,-82555.6094,94623.8750,-82605.2500,-82575.9219,-82689.8281,-82587.5469,-82573.7578,35.567017
3329.1582,-82175.0469,-82235.2188,-82277.3047,105556.1797,-82257.6797,-82137.3828,-82205.7813,-82179.8281,-82176.7188,-82241.3594,-82252.2734,123444.5234,-82343.9766,-82195.0938,-82244.8984,94587.7500,-82293.7344,-82264.7188,-82378.4453,-82276.3203,-82262.4219,35.571014
59500.1406,-82157.1641,-82218.3438,-82260.4531,105511.7188,-82240.8047,-82120.4609,-82188.8594,-82162.8203,-82159.6875,-82224.3516,-82235.2422,123418.9531,-82326.9688,-82178.1094,-82227.7969,94683.7109,-82276.7422,-82247.8438,-82361.6172,-82259.4219,-82245.4766,35.575012
-34080.4648,-82321.4688,-82380.2344,-82422.2109,105566.2109,-82402.9219,-82282.2422,-82350.7734,-82324.6875,-82321.7188,-82386.3125,-82397.0469,123488.5781,-82489.0625,-82339.9531,-82389.6875,94827.0078,-82438.4609,-82409.4063,-82523.2188,-82421.0703,-82407.1484,35.579010
-81134.9531,-82266.7578,-82324.7109,-82366.6875,105622.8984,-82347.3750,-82226.7266,-82295.2734,-82269.0313,-82266.1328,-82330.6563,-82341.4766,123551.2266,-82433.3438,-82284.3438,-82334.0781,94873.4922,-82383.1406,-82354.1484,-82467.8516,-82365.7969,-82351.8047,35.583984
-73860.3516,-81966.4141,-82024.3281,-82066.3516,105595.6016,-82046.6797,-81926.4922,-81994.8438,-81968.3594,-81965.4297,-82029.9375,-82040.8672,123526.8672,-82132.3984,-81983.6484,-82033.2500,94832.0313,-82082.2656,-82053.6719,-82167.1797,-82065.3438,-82051.1484,35.587982
10120.9365,-81749.0234,-81809.2109,-81851.3281,105519.5391,-81831.4766,-81711.5859,-81779.7578,-81753.3125,-81750.3594,-81815.0234,-81825.8906,123456.3438,-81917.1953,-81768.8672,-81818.2031,94818.0625,-81866.7500,-81838.3828,-81951.8203,-81850.0547,-81835.7266,35.591980
63611.7656,-81820.1641,-81880.8984,-81922.9844,105484.1172,-81903.2969,-81783.1094,-81851.4844,-81825.2188,-81822.1563,-81886.8672,-81897.6641,123433.4844,-81989.0547,-81840.7109,-81890.0859,94930.8516,-81938.9922,-81910.6953,-82024.1016,-81922.4063,-81908.0547,35.595978
-30465.5156,-82003.4063,-82062.3047,-82104.3672,105529.4219,-82084.8125,-81964.4453,-82032.9141,-82006.7344,-82003.7656,-82068.3125,-82079.2031,123495.6875,-82170.7344,-82022.1797,-82071.6875,95091.7188,-82120.9063,-82092.5234,-82206.0234,-82104.1875,-82090.0625,35.599976
-80556.1094,-81950.5234,-82008.3672,-82050.3672,105587.2422,-82030.8984,-81910.6016,-81978.9297,-81952.7344,-81949.8047,-82014.4063,-82025.3125,123562.8750,-82116.6406,-81968.2500,-82017.7344,95157.6797,-82066.7500,-82038.5469,-82152.0234,-82050.1406,-82036.0625,35.603973
-70831.7578,-81621.3281,-81679.0625,-81721.0391,105575.1953,-81701.3438,-81581.3594,-81649.6016,-81623.0938,-81620.2344,-81684.8047,-81695.8281,123552.8594,-81786.7266,-81638.7188,-81688.0469,95132.3281,-81737.0000,-81709.1719,-81822.5156,-81720.8359,-81706.5078,35.607971
20105.1484,-81297.1328,-81357.0859,-81399.0625,105490.6406,-81379.1250,-81259.4531,-81327.6016,-81300.8438,-81298.0078,-81362.5391,-81373.6250,123473.8906,-81464.2188,-81316.5625,-81365.7344,95131.6172,-81414.3672,-81386.9688,-81500.1328,-81398.6797,-81384.2422,35.611969
-24370.1289,-81521.5234,-81580.8672,-81622.9375,105520.4375,-81602.9531,-81483.1484,-81551.3906,-81524.6797,-81521.9531,-81586.5234,-81597.4766,123533.2109,-81688.4063,-81540.5469,-81589.7656,95440.4063,-81637.6406,-81610.2188,-81723.3828,-81621.8594,-81607.5156,35.615967
-79542.3906,-81445.1016,-81502.9063,-81545.0391,105567.3516,-81525.1250,-81405.2734,-81473.3984,-81446.6719,-81443.8047,-81508.4688,-81519.4219,123593.7188,-81610.2422,-81462.4922,-81511.6484,95518.5234,-81559.4375,-81532.0313,-81645.2188,-81543.7188,-81529.3281,35.619965
-67269.7891,-81059.3594,-81117.2969,-81159.3828,105542.5625,-81139.2422,-81019.8203,-81087.7031,-81060.8594,-81058.1328,-81122.7031,-81133.7031,123574.1641,-81224.1563,-81076.8828,-81125.8516,95505.6016,-81174.0000,-81147.0234,-81259.9688,-81158.7578,-81144.1641,35.623962
29363.9766,-80642.6094,-80702.9141,-80745.0234,105471.6406,-80724.5078,-80605.6406,-80673.3203,-80646.2734,-80643.6172,-80708.1641,-80719.2969,123505.8125,-80809.3125,-80662.5000,-80711.2734,95514.2344,-80758.8828,-80732.3750,-80845.0469,-80744.0391,-80729.2266,35.627960
77826.8750,-80455.9297,-80516.2813,-80558.4766,105432.3047,-80537.9375,-80419.1406,-80486.7969,-80459.6641,-80457.0000,-80521.5313,-80532.6875,123478.6328,-80622.4688,-80475.9141,-80524.5469,95637.2109,-80571.3047,-80545.0234,-80657.5156,-80556.6250,-80541.7344,35.631958
-9326.4219,-80535.3672,-80595.0938,-80637.1797,105485.2109,-80616.7500,-80497.8125,-80565.4766,-80538.7188,-80536.0625,-80600.6563,-80611.7656,123548.4844,-80701.5703,-80554.8984,-80603.6719,95792.9141,-80650.7031,-80624.4141,-80736.9141,-80636.0156,-80621.1094,35.635956
-76828.9531,-80528.8594,-80586.3984,-80628.4609,105547.2813,-80608.1250,-80489.1016,-80556.7813,-80529.9609,-80527.2500,-80591.9141,-80602.9609,123620.2969,-80692.8359,-80546.1406,-80594.8906,95846.8281,-80641.7578,-80615.4531,-80728.0391,-80627.1172,-80612.2813,35.639954
-61924.1406,-80257.3516,-80315.3594,-80357.4453,105525.1719,-80336.7734,-80218.2422,-80285.8125,-80258.6719,-80256.0781,-80320.6797,-80331.8516,123600.2500,-80421.3516,-80275.0391,-80323.7188,95813.5000,-80370.7656,-80344.7266,-80457.1328,-80356.4375,-80341.4453,35.643951
38824.5547,-79945.1484,-80005.8125,-80047.8984,105442.6953,-80027.0859,-79908.8047,-79976.2344,-79949.0391,-79946.4219,-80010.9531,-80022.2813,123519.0469,-80111.3750,-79965.4844,-80013.9219,95801.9844,-80061.1094,-80035.2891,-80147.4766,-80047.0000,-80031.9141,35.647949
81007.3438,-79859.3828,-79919.7734,-79961.9297,105417.1250,-79940.9922,-79822.7266,-79890.1406,-79862.8047,-79860.1875,-79924.7422,-79936.0703,123500.2656,-80025.1016,-79879.2734,-79927.6641,95906.6641,-79974.3594,-79948.5859,-80060.7031,-79960.3438,-79945.1250,35.651947
-2443.7385,-79949.3672,-80009.1172,-80051.1406,105472.6016,-80030.3281,-79912.0000,-79979.4766,-79952.1875,-79949.5234,-80014.0156,-80025.3906,123571.4141,-80114.5938,-79968.6172,-80017.0313,96037.7969,-80063.5234,-80037.7969,-80149.8203,-80049.4844,-80034.3047,35.655945
-74939.3359,-79864.1016,-79921.3203,-79963.3203,105520.6563,-79942.6016,-79824.2422,-79891.7031,-79864.3438,-79861.6875,-79926.2344,-79937.5938,123632.3672,-80026.5938,-79880.7969,-79929.1875,96071.9063,-79975.5703,-79949.9766,-80061.9766,-79961.6172,-79946.3281,35.659943
-52904.8125,-79470.8906,-79528.9766,-79571.1094,105501.4141,-79550.1250,-79432.1484,-79499.3828,-79471.8672,-79469.2969,-79533.8281,-79545.2500,123613.5000,-79633.8125,-79488.4141,-79536.6875,96023.6016,-79583.4063,-79558.2578,-79669.8594,-79569.8125,-79554.4609,35.663940
51764.4492,-79070.3203,-79131.1641,-79173.3203,105422.0859,-79151.9531,-79034.4688,-79101.5703,-79073.7188,-79071.1719,-79135.7891,-79147.2344,123531.9844,-79235.3672,-79090.4375,-79138.4922,96000.5391,-79185.2578,-79160.4922,-79271.9375,-79172.1563,-79156.6016,35.667938
84780.8125,-79119.1172,-79180.3359,-79222.4219,105384.5156,-79201.0313,-79083.5547,-79150.6094,-79122.7813,-79120.2109,-79184.8984,-79196.2969,123503.0156,-79284.3594,-79139.5703,-79187.5547,96094.8594,-79234.3125,-79209.6406,-79321.0156,-79221.3047,-79205.7266,35.671936
7483.4980,-79309.6641,-79369.7656,-79411.8594,105443.3438,-79390.5313,-79272.9609,-79340.1094,-79312.2813,-79309.6641,-79374.3281,-79385.7031,123577.5156,-79474.0156,-79329.0391,-79377.0547,96223.5625,-79423.5938,-79398.7578,-79510.3125,-79410.4453,-79394.9766,35.675934
-71460.7813,-79002.0156,-79059.1641,-79101.3047,105500.5391,-79079.9297,-78962.4531,-79029.4141,-79001.5000,-78998.9063,-79063.5703,-79075.0391,123645.2422,-79162.9219,-79018.3281,-79066.2109,96265.0234,-79112.5234,-79087.9375,-79199.3125,-79099.6484,-79083.9766,35.679932
-40998.3281,-78410.5000,-78469.1719,-78511.2578,105490.4609,-78489.5078,-78372.6563,-78439.3516,-78411.2578,-78408.7734,-78473.4219,-78484.9531,123625.7969,-78572.1875,-78428.3359,-78475.8516,96233.6641,-78521.6719,-78497.7813,-78608.7344,-78509.4688,-78493.4453,35.683929
62165.0508,-78199.6797,-78260.9609,-78303.0078,105453.7578,-78281.1484,-78164.5391,-78231.1953,-78202.9844,-78200.5000,-78265.1250,-78276.7422,123557.2188,-78363.7813,-78220.1250,-78267.5547,96238.3125,-78313.6250,-78289.9766,-78400.8672,-78301.6484,-78285.6172,35.687927
86629.1875,-78505.4688,-78567.3594,-78609.4922,105430.1328,-78587.7266,-78470.8672,-78537.6094,-78509.6094,-78507.0781,-78571.6797,-78583.1875,123531.6953,-78670.6484,-78526.5234,-78574.2031,96339.2109,-78619.7734,-78595.7500,-78706.8359,-78607.3281,-78591.4766,35.691925
14636.9727,-78754.2891,-78814.7500,-78856.9297,105483.0156,-78835.2500,-78718.3047,-78785.1328,-78757.1719,-78754.6250,-78819.2188,-78830.7109,123599.7578,-78918.5313,-78774.0234,-78821.8594,96472.8750,-78867.2109,-78842.9609,-78954.2266,-78854.5625,-78838.8281,35.695923
-68316.4063,-78500.8438,-78558.6016,-78600.7578,105545.1797,-78579.1406,-78462.2656,-78529.0313,-78500.6641,-78498.2031,-78562.7813,-78574.3594,123671.1250,-78661.7500,-78517.7188,-78565.4609,96520.7109,-78611.3047,-78587.3906,-78698.4531,-78598.9688,-78583.0781,35.699921
-34048.3906,-77941.1797,-78000.5859,-78042.6563,105528.4375,-78020.7734,-77904.3672,-77970.8828,-77942.3594,-77939.9453,-78004.4766,-78016.2813,123651.2734,-78102.9609,-77959.6641,-78007.1406,96490.9609,-78052.8672,-78029.4688,-78140.1953,-78041.1563,-78025.0000,35.703918
66723.8203,-77740.6797,-77802.3281,-77844.5078,105445.8672,-77822.4922,-77706.2813,-77772.7109,-77744.1484,-77741.8203,-77806.3516,-77818.2188,123561.2422,-77904.5234,-77761.4922,-77808.8984,96485.0547,-77854.5234,-77831.4063,-77941.8516,-77843.0313,-77826.7344,35.707916
87292.2969,-78113.6250,-78175.6953,-78217.9609,105420.2969,-78196.0313,-78079.4688,-78146.0781,-78117.6875,-78115.3438,-78179.8047,-78191.5859,123535.6953,-78278.3281,-78134.9219,-78182.4219,96596.1016,-78228.4453,-78204.9297,-78315.6172,-78216.6172,-78200.3438,35.711914
87292.2969,-78113.6250,-78175.6953,-78217.9609,105420.2969,-78196.0313,-78079.4688,-78146.0781,-78117.6875,-78115.3438,-78179.8047,-78191.5859,123535.6953,-78278.3281,-78134.9219,-78182.4219,96596.1016,-78228.4453,-78204.9297,-78315.6172,-78216.6172,-78200.3438,35.715912
16565.8613,-78388.4844,-78448.8125,-78491.0313,105480.8984,-78469.2344,-78352.4766,-78419.1953,-78390.9609,-78388.6406,-78453.0313,-78464.6563,123613.6563,-78551.8281,-78408.0391,-78455.6719,96737.2500,-78501.7188,-78477.9531,-78588.9063,-78489.7109,-78473.6641,35.719910
16565.8613,-78388.4844,-78448.8125,-78491.0313,105480.8984,-78469.2344,-78352.4766,-78419.1953,-78390.9609,-78388.6406,-78453.0313,-78464.6563,123613.6563,-78551.8281,-78408.0391,-78455.6719,96737.2500,-78501.7188,-78477.9531,-78588.9063,-78489.7109,-78473.6641,35.723907
-68470.0547,-78427.9063,-78485.2891,-78527.4219,105529.6484,-78505.7813,-78388.9531,-78455.6484,-78427.3281,-78424.9141,-78489.4688,-78501.1094,123681.4297,-78588.3281,-78444.3828,-78492.0781,96778.5781,-78537.5703,-78513.7656,-78624.8047,-78525.5234,-78509.4297,35.727905
-40746.5352,-78187.9219,-78246.3672,-78288.4375,105507.5859,-78266.6172,-78150.0547,-78216.5938,-78188.3203,-78185.8594,-78250.3906,-78262.1016,123656.8672,-78349.1406,-78205.4453,-78253.0547,96732.6250,-78298.1172,-78274.5078,-78385.3984,-78286.2422,-78270.1484,35.731903
-40746.5352,-78187.9219,-78246.3672,-78288.4375,105507.5859,-78266.6172,-78150.0547,-78216.5938,-78188.3203,-78185.8594,-78250.3906,-78262.1016,123656.8672,-78349.1406,-78205.4453,-78253.0547,96732.6250,-78298.1172,-78274.5078,-78385.3984,-78286.2422,-78270.1484,35.735901
62594.9609,-77905.8828,-77967.3281,-78009.4609,105431.8125,-77987.4453,-77871.1484,-77937.6016,-77909.2578,-77906.8906,-77971.3281,-77983.1328,123568.7344,-78069.8594,-77926.4688,-77973.8984,96719.2109,-78019.0938,-77995.8984,-78106.5391,-78007.5625,-77991.2891,35.739899
62594.9609,-77905.8828,-77967.3281,-78009.4609,105431.8125,-77987.4453,-77871.1484,-77937.6016,-77909.2578,-77906.8906,-77971.3281,-77983.1328,123568.7344,-78069.8594,-77926.4688,-77973.8984,96719.2109,-78019.0938,-77995.8984,-78106.5391,-78007.5625,-77991.2891,35.743896
87881.3359,-77881.7656,-77944.0156,-77986.2422,105396.1641,-77964.2891,-77847.9297,-77914.3359,-77886.0781,-77883.6875,-77948.1484,-77960.0000,123536.6797,-78046.6094,-77903.3594,-77950.6797,96823.6406,-77996.1172,-77972.9141,-78083.6250,-77984.6094,-77968.4063,35.747894
87881.3359,-77881.7656,-77944.0156,-77986.2422,105396.1641,-77964.2891,-77847.9297,-77914.3359,-77886.0781,-77883.6875,-77948.1484,-77960.0000,123536.6797,-78046.6094,-77903.3594,-77950.6797,96823.6406,-77996.1172,-77972.9141,-78083.6250,-77984.6094,-77968.4063,35.751892
21092.6250,-78059.7578,-78120.2578,-78162.4141,105457.3359,-78140.4688,-78023.9922,-78090.6250,-78062.4375,-78060.0703,-78124.5078,-78136.2656,123616.7422,-78223.0313,-78079.6016,-78127.0313,96954.0625,-78172.6328,-78149.2734,-78260.1406,-78161.0313,-78144.9141,35.755890
-66194.7109,-78092.0078,-78149.8125,-78191.9688,105516.1875,-78170.1016,-78053.5391,-78120.1250,-78091.9609,-78089.6172,-78154.1250,-78165.7656,123690.0781,-78252.7422,-78109.1484,-78156.5859,96981.1328,-78202.1797,-78178.7344,-78289.5781,-78190.4453,-78174.4219,35.759888
-66194.7109,-78092.0078,-78149.8125,-78191.9688,105516.1875,-78170.1016,-78053.5391,-78120.1250,-78091.9609,-78089.6172,-78154.1250,-78165.7656,123690.0781,-78252.7422,-78109.1484,-78156.5859,96981.1328,-78202.1797,-78178.7344,-78289.5781,-78190.4453,-78174.4219,35.763885
-36132.5547,-77814.9141,-77873.8750,-77916.1016,105485.6797,-77894.0625,-77777.7188,-77844.1953,-77815.8750,-77813.5703,-77878.0547,-77889.8125,123656.3047,-77976.4688,-77833.2656,-77880.5625,96925.2969,-77925.9141,-77902.7813,-78013.4453,-77914.5156,-77898.2656,35.767883
-36132.5547,-77814.9141,-77873.8750,-77916.1016,105485.6797,-77894.0625,-77777.7188,-77844.1953,-77815.8750,-77813.5703,-77878.0547,-77889.8125,123656.3047,-77976.4688,-77833.2656,-77880.5625,96925.2969,-77925.9141,-77902.7813,-78013.4453,-77914.5156,-77898.2656,35.771881
62841.5234,-78235.6875,-78297.1484,-78339.3750,105407.4219,-78317.5781,-78200.9063,-78267.4922,-78239.4609,-78237.0000,-78301.4922,-78313.0469,123562.5391,-78400.2422,-78256.5391,-78304.1250,96895.1250,-78349.8828,-78326.2344,-78437.3203,-78337.9922,-78321.8750,35.775879
42984.7500,-81633.6641,-81695.1953,-81737.3516,105379.2188,-81717.4375,-81597.5859,-81665.6250,-81639.6094,-81636.6172,-81701.2344,-81712.0938,123534.4219,-81803.3125,-81655.3203,-81704.5391,96955.6250,-81752.4375,-81725.3281,-81838.7656,-81736.8828,-81722.6875,35.779877
-51241.7539,-81208.8281,-81270.0938,-81312.2031,105430.0000,-81291.9297,-81172.5703,-81240.5625,-81214.1406,-81211.3047,-81275.9453,-81286.8516,123606.4609,-81377.5547,-81230.0781,-81279.1016,97078.8281,-81326.6875,-81300.0391,-81413.0547,-81311.6406,-81297.2266,35.783875
-51241.7539,-81208.8281,-81270.0938,-81312.2031,105430.0000,-81291.9297,-81172.5703,-81240.5625,-81214.1406,-81211.3047,-81275.9453,-81286.8516,123606.4609,-81377.5547,-81230.0781,-81279.1016,97078.8281,-81326.6875,-81300.0391,-81413.0547,-81311.6406,-81297.2266,35.787872
-58907.6641,-76876.4063,-76942.4609,-76984.7031,105488.3203,-76961.7734,-76846.7734,-76912.7969,-76883.9609,-76881.7031,-76946.3047,-76958.0625,123679.2578,-77043.6016,-76901.7109,-76948.5391,97144.5000,-76993.3516,-76971.2656,-77081.1484,-76982.9375,-76966.1953,35.791870
8217.7979,-75718.4297,-75780.7891,-75823.0156,105471.1484,-75799.6563,-75685.5078,-75751.0234,-75721.5391,-75719.5234,-75783.9688,-75796.1016,123655.9063,-75880.1484,-75739.7109,-75786.0234,97102.2969,-75830.0547,-75809.2266,-75918.3047,-75820.9375,-75803.5000,35.795868
80214.3047,-77682.5703,-77743.4297,-77785.5469,105384.0703,-77763.5078,-77647.2969,-77713.5938,-77685.1641,-77682.9453,-77747.4141,-77759.1484,123554.8750,-77845.5547,-77702.6172,-77749.8438,97062.7813,-77795.1797,-77772.3125,-77882.8828,-77784.0000,-77767.6406,35.799866
80214.3047,-77682.5703,-77743.4297,-77785.5469,105384.0703,-77763.5078,-77647.2969,-77713.5938,-77685.1641,-77682.9453,-77747.4141,-77759.1484,123554.8750,-77845.5547,-77702.6172,-77749.8438,97062.7813,-77795.1797,-77772.3125,-77882.8828,-77784.0000,-77767.6406,35.803864
71258.7188,-79885.4922,-79945.9766,-79988.0859,105351.1250,-79967.2969,-79849.0313,-79916.3594,-79889.0234,-79886.4531,-79951.0000,-79962.3359,123522.2422,-80051.3203,-79905.6484,-79953.9063,97139.9609,-80000.7813,-79975.5859,-80087.7031,-79987.2578,-79972.0547,35.807861
-688.1878,-75886.4297,-75948.3672,-75990.5156,105442.4297,-75967.2266,-75852.9688,-75918.4609,-75889.0859,-75887.0547,-75951.5859,-75963.6094,123648.5703,-76047.8281,-75907.2344,-75953.5938,97296.8047,-75997.5859,-75976.5234,-76085.9375,-75988.4219,-75971.0703,35.811859
90515.7813,-76449.2422,-76512.7891,-76554.9453,105336.4844,-76532.1250,-76417.2578,-76482.9922,-76453.8281,-76451.7031,-76516.3203,-76528.2578,123523.3594,-76613.1250,-76471.8672,-76518.4922,97386.6328,-76561.7891,-76540.2813,-76649.9844,-76551.9766,-76535.0078,35.815857
-21966.9141,-76927.8203,-76987.6719,-77029.8984,105416.3906,-77007.3906,-76892.0078,-76958.0156,-76929.0938,-76926.9219,-76991.5391,-77003.3438,123656.8828,-77088.7500,-76946.9531,-76993.7734,97510.3516,-77037.6797,-77015.6406,-77125.5625,-77027.3906,-77010.5859,35.819855
73076.7656,-76742.3672,-76804.6406,-76846.8828,105327.5156,-76824.0859,-76708.8828,-76774.9766,-76745.7656,-76743.6641,-76808.1719,-76820.1953,123554.2500,-76905.3984,-76763.6641,-76810.4297,97508.0938,-76854.5469,-76832.6406,-76942.5000,-76844.4922,-76827.5234,35.823853
29432.2617,-76957.2578,-77018.1641,-77060.3438,105353.5391,-77037.7656,-76922.5000,-76988.5469,-76959.6484,-76957.4141,-77021.9609,-77033.8750,123613.6563,-77119.3047,-76977.3281,-77024.1953,97785.1719,-77068.0781,-77046.1016,-77156.1172,-77057.8828,-77041.0078,35.827850
-26169.8906,-76962.7734,-77022.6094,-77064.9219,105372.2188,-77042.3438,-76926.9219,-76992.9297,-76964.0938,-76961.8594,-77026.3672,-77038.3438,123659.2578,-77123.8203,-76981.8672,-77028.7344,97799.4063,-77072.7891,-77050.7500,-77160.8125,-77062.4844,-77045.8594,35.831848
71287.8047,-76719.9922,-76782.2188,-76824.5078,105288.6250,-76801.8438,-76686.6406,-76752.4688,-76723.7422,-76721.4453,-76786.0391,-76797.9531,123559.9219,-76883.2500,-76741.5859,-76788.2734,97810.8516,-76832.3984,-76810.6484,-76920.6406,-76822.5156,-76805.6641,35.835846
89181.1094,-76650.8125,-76713.8203,-76756.1328,105249.8047,-76733.3828,-76618.0859,-76684.0703,-76655.2188,-76652.9766,-76717.6016,-76729.4453,123526.3750,-76814.6953,-76673.1406,-76719.8125,97933.0703,-76763.9141,-76742.2734,-76852.0469,-76754.1641,-76737.2031,35.839844
29409.3516,-76829.5625,-76890.3125,-76932.6875,105305.2344,-76909.9375,-76794.5781,-76860.6484,-76831.8828,-76829.5781,-76894.2188,-76906.0469,123615.9844,-76991.5234,-76849.7422,-76896.5234,98073.6172,-76940.7344,-76918.8750,-77028.8438,-76930.8594,-76913.9609,35.843842
-60542.0430,-76954.7266,-77013.1094,-77055.3750,105353.4922,-77032.8672,-76917.4219,-76983.4766,-76954.8438,-76952.4688,-77017.0703,-77029.0000,123694.7500,-77114.4531,-76972.6094,-77019.4609,98113.7188,-77063.3828,-77041.3203,-77151.4922,-77053.2969,-77036.5156,35.847839
-25904.3516,-76829.8906,-76889.9297,-76932.1094,105316.6563,-76909.4219,-76794.1563,-76860.1328,-76831.4609,-76829.1094,-76893.6172,-76905.6250,123659.4609,-76991.0078,-76849.1875,-76896.0781,98074.3984,-76938.9922,-76917.0625,-77027.0625,-76928.9766,-76912.1250,35.851837
71149.5547,-76616.6172,-76678.9297,-76721.0859,105239.1172,-76698.2422,-76583.2422,-76649.1328,-76620.3047,-76618.0234,-76682.6406,-76694.5547,123564.4844,-76779.7344,-76638.1641,-76684.8750,98076.5000,-76727.7500,-76706.0859,-76815.9219,-76718.0234,-76701.0625,35.855835
27481.3340,-76700.0313,-76760.9609,-76803.3438,105257.6016,-76780.3594,-76665.2969,-76731.2109,-76702.2422,-76700.0781,-76764.6484,-76776.5391,123620.4297,-76861.7891,-76720.2109,-76766.8828,98300.8438,-76811.0313,-76789.3672,-76899.2969,-76801.3516,-76784.4063,35.859833
-61059.1094,-76821.7344,-76880.3438,-76922.6563,105308.9688,-76899.8984,-76784.5391,-76850.5703,-76821.4688,-76819.3906,-76883.8750,-76895.8516,123702.8438,-76981.1250,-76839.5078,-76886.2656,98316.8516,-76930.5234,-76908.7969,-77018.7031,-76920.7109,-76903.7656,35.863831
-23643.8301,-76683.2188,-76743.3281,-76785.5234,105278.2969,-76762.8203,-76647.5234,-76713.4609,-76684.4063,-76682.3984,-76746.8828,-76758.8594,123670.8125,-76844.0000,-76702.4922,-76749.1563,98259.7813,-76793.2344,-76771.6250,-76881.4375,-76783.4922,-76766.4375,35.867828
72582.7734,-76427.5391,-76489.9453,-76532.1953,105187.2813,-76509.3672,-76394.2813,-76460.1328,-76430.8047,-76428.8125,-76493.2969,-76505.3672,123559.5234,-76590.2422,-76448.9766,-76495.5156,98243.6250,-76538.9219,-76517.6172,-76627.2969,-76529.3984,-76512.3203,35.871826
89058.2188,-76362.5391,-76425.6641,-76467.8203,105158.1797,-76444.9063,-76330.1094,-76395.8672,-76366.5391,-76364.4844,-76428.9453,-76441.0859,123529.8359,-76525.8672,-76384.6953,-76431.2266,98339.5391,-76474.2344,-76453.0469,-76562.6328,-76464.8906,-76447.7031,35.875824
29130.3125,-76535.7031,-76596.6094,-76638.7891,105217.5000,-76616.0078,-76500.9219,-76566.9297,-76537.7813,-76535.7031,-76600.1875,-76612.2578,123625.5703,-76697.2813,-76555.7500,-76602.3984,98453.7734,-76645.6953,-76624.2813,-76733.9609,-76636.1250,-76619.1172,35.879822
-60228.3594,-76651.1484,-76709.6406,-76751.9297,105259.6328,-76729.2656,-76613.9766,-76680.0469,-76650.9219,-76648.7813,-76713.3281,-76725.3125,123705.2813,-76810.4688,-76668.7344,-76715.4531,98471.5938,-76759.4453,-76737.9844,-76847.7109,-76749.8516,-76732.8203,35.883820
-23568.5273,-76529.2422,-76589.3906,-76631.6797,105230.0234,-76608.7656,-76493.7656,-76559.6641,-76530.5156,-76528.3672,-76592.8516,-76604.8984,123677.7422,-76689.7969,-76548.4375,-76595.0703,98420.0000,-76638.7891,-76617.4219,-76727.1172,-76629.2891,-76612.1016,35.887817
72372.6250,-76277.8750,-76340.3203,-76382.5938,105148.1875,-76359.5703,-76244.7266,-76310.5547,-76281.2500,-76279.1719,-76343.6563,-76355.8125,123575.0781,-76440.4375,-76299.3281,-76345.8438,98406.7500,-76389.4063,-76368.2656,-76477.8125,-76380.1563,-76362.8359,35.891815
29988.7539,-76346.7813,-76408.0078,-76450.2031,105165.5156,-76427.2734,-76312.4063,-76378.2109,-76348.7969,-76346.7813,-76411.2656,-76423.3359,123637.3750,-76508.1172,-76366.7891,-76413.4844,98605.5703,-76457.4688,-76436.3906,-76546.0234,-76448.3281,-76431.0469,35.895813
-60075.2500,-76467.8203,-76526.9609,-76569.1172,105216.8750,-76546.3594,-76431.3828,-76497.2578,-76467.9766,-76465.8516,-76530.4922,-76542.3359,123725.5313,-76627.3438,-76485.9688,-76532.6172,98612.6953,-76576.6719,-76555.3672,-76665.1641,-76567.3516,-76550.1875,35.899811
-39488.5117,-76450.2734,-76510.0625,-76552.2422,105195.4453,-76529.3281,-76414.4453,-76480.3359,-76451.0781,-76448.9063,-76513.5469,-76525.4844,123714.0625,-76610.3750,-76469.0938,-76515.6953,98790.7734,-76559.2813,-76538.0938,-76647.8359,-76550.0938,-76532.8203,35.903809
48555.9453,-76644.1719,-76705.5703,-76747.8828,105147.6094,-76725.0234,-76609.8828,-76675.8438,-76646.8125,-76644.5547,-76709.1953,-76721.1094,123659.4375,-76806.0469,-76664.7188,-76711.3203,99287.6328,-76754.3438,-76733.1328,-76842.9688,-76745.0703,-76727.9219,35.907806
85532.8125,-76773.9922,-76833.9609,-76876.2266,105097.9844,-76853.5234,-76738.2500,-76804.3047,-76775.2031,-76773.0781,-76837.5391,-76849.4766,123599.9766,-76934.7500,-76793.0391,-76839.8438,99171.6484,-76883.1563,-76861.8359,-76971.6953,-76873.7031,-76856.7422,35.911804
70189.2344,-76429.1250,-76490.0547,-76532.3672,105069.5313,-76509.4609,-76394.5234,-76460.3984,-76431.0469,-76429.0391,-76493.4531,-76505.5000,123587.5547,-76590.3516,-76449.0469,-76495.7344,98316.8906,-76539.1875,-76517.8828,-76627.5625,-76529.7813,-76512.6328,35.915802
8935.5791,-76032.7422,-76091.9766,-76134.3281,105099.0391,-76111.1719,-75996.6250,-76062.2422,-76032.8750,-76030.8203,-76095.3047,-76107.3750,123658.6563,-76191.7969,-76051.0469,-76097.4297,97968.2266,-76141.2109,-76120.2734,-76229.7031,-76132.0938,-76114.8203,35.919800
-7388.1455,-76004.2891,-76062.8047,-76105.2031,105133.8594,-76082.0078,-75967.4766,-76033.0547,-76003.9297,-76001.7813,-76066.2656,-76078.3828,123727.1406,-76162.7422,-76022.1016,-76068.4375,98579.3281,-76111.2188,-76090.5000,-76199.9141,-76102.3438,-76085.0000,35.923798
52876.4258,-76314.0156,-76375.1953,-76417.5703,105104.9141,-76394.5234,-76279.8438,-76345.5547,-76316.5391,-76314.3516,-76378.8359,-76390.9297,123705.1875,-76475.6875,-76334.6016,-76381.0469,99414.6797,-76423.5391,-76402.8828,-76512.4141,-76414.7109,-76397.5000,35.927795
85719.0938,-76477.9453,-76538.0000,-76580.2734,105035.2891,-76557.4297,-76442.4453,-76508.2734,-76479.3047,-76477.0313,-76541.5781,-76553.5859,123628.3438,-76638.6328,-76497.1875,-76543.7891,99318.7656,-76586.9531,-76566.0078,-76675.6641,-76577.9453,-76560.7813,35.931793
72199.7109,-76215.8047,-76276.6875,-76319.0234,105016.5859,-76295.9531,-76181.1797,-76246.8750,-76217.8594,-76215.7344,-76280.1563,-76292.2891,123626.6641,-76377.0469,-76235.8984,-76282.4141,98458.1797,-76325.8828,-76304.7656,-76414.3281,-76316.7188,-76299.3984,35.935791
12751.8486,-75876.0078,-75935.3516,-75977.6484,105046.9609,-75954.4922,-75840.0469,-75905.6016,-75876.3438,-75874.2266,-75938.7734,-75950.8438,123704.0234,-76035.2422,-75894.5391,-75940.8750,98136.7422,-75984.6172,-75963.6953,-76072.9297,-75975.5625,-75958.0859,35.939789
-3970.4519,-75856.3828,-75914.8125,-75957.1016,105068.1484,-75933.8828,-75819.5703,-75885.0000,-75855.7188,-75853.5469,-75918.1641,-75930.2578,123762.9219,-76014.5000,-75873.9531,-75920.2266,98769.4688,-75963.6719,-75943.1328,-76052.3906,-75955.0234,-75937.5234,35.943787
55471.1719,-76172.0859,-76233.2344,-76275.5703,105046.7109,-76252.3906,-76137.8203,-76203.4609,-76174.5000,-76172.2578,-76236.7891,-76248.9063,123743.0547,-76333.4609,-76192.4219,-76238.9375,99585.3750,-76281.5625,-76261.0000,-76370.4297,-76272.8906,-76255.5625,35.947784
86137.8516,-76329.4844,-76389.6797,-76431.9453,104982.2031,-76408.9922,-76294.1484,-76359.8594,-76330.8047,-76328.6094,-76393.2500,-76405.2109,123667.8828,-76489.9922,-76348.8438,-76395.2891,99468.3906,-76438.3125,-76417.4609,-76527.0469,-76429.3516,-76412.2109,35.951782
72610.8906,-76072.6875,-76133.5938,-76175.8125,104949.2188,-76152.7500,-76038.1250,-76103.7500,-76074.5391,-76072.2813,-76137.0156,-76148.9922,123656.9766,-76233.5078,-76092.6406,-76139.0703,98605.4297,-76182.3203,-76161.4453,-76270.8125,-76173.3594,-76155.9922,35.955780
12948.5664,-75809.8984,-75869.2422,-75911.4844,104987.5703,-75888.2578,-75773.8828,-75839.3984,-75810.1641,-75807.9063,-75872.4609,-75884.6406,123743.3672,-75968.7031,-75828.3125,-75874.5781,98299.4844,-75918.0547,-75897.5547,-76006.6563,-75909.3828,-75891.8594,35.959778
-2327.8000,-75815.5313,-75874.0234,-75916.2656,105019.5313,-75893.1094,-75778.7344,-75844.2031,-75814.8359,-75812.6641,-75877.2656,-75889.4453,123810.0625,-75973.4844,-75833.0703,-75879.3828,98934.7656,-75922.5234,-75902.2109,-76011.3984,-75913.9844,-75896.5781,35.963776
58534.5234,-76028.7656,-76090.0078,-76132.2500,104993.5391,-76109.2109,-75994.5625,-76060.1875,-76030.7734,-76028.6953,-76093.2734,-76105.4531,123780.8047,-76189.7422,-76049.0391,-76095.4141,99728.2734,-76137.9531,-76117.6094,-76226.9766,-76129.4375,-76112.0938,35.967773
87033.2422,-76077.2422,-76138.0000,-76180.2188,104937.3906,-76157.3516,-76042.5781,-76108.2422,-76078.9219,-76076.9297,-76141.3750,-76153.4844,123711.4219,-76237.9531,-76097.2266,-76143.4297,99564.4766,-76186.0781,-76165.6250,-76275.0156,-76177.4922,-76160.1484,35.971771
75741.5000,-75772.1641,-75833.2266,-75875.4766,104918.7266,-75852.3438,-75737.8516,-75803.3438,-75774.1328,-75772.0313,-75836.5391,-75848.6328,123721.7969,-75932.8516,-75792.3672,-75838.5938,98672.4219,-75881.3516,-75860.8984,-75970.1328,-75872.8125,-75855.2656,35.975769
11483.2979,-75097.7656,-75156.5313,-75198.7344,104989.5859,-75175.1953,-75061.4219,-75126.5781,-75096.9219,-75095.0391,-75159.5703,-75171.8438,123889.4141,-75254.9922,-75115.4297,-75161.4063,99008.5234,-75203.5391,-75183.8672,-75292.6563,-75195.8672,-75177.9453,35.979767
64970.7734,-76170.3203,-76232.3438,-76274.6328,104952.4297,-76251.6563,-76136.8359,-76202.3906,-76173.4922,-76171.3906,-76235.8984,-76248.0313,123844.1484,-76332.4531,-76191.5313,-76237.9766,99655.6094,-76280.3984,-76259.8828,-76369.2891,-76271.7734,-76254.4297,35.983765
86407.6172,-77375.7891,-77435.2891,-77477.4922,104880.1484,-77455.3438,-77339.2656,-77405.4766,-77377.0234,-77374.6094,-77439.2891,-77451.0703,123764.5313,-77537.0625,-77394.6563,-77441.5703,99391.0547,-77485.4922,-77463.6328,-77573.9375,-77475.5234,-77458.9141,35.987762
83700.2813,-74816.4063,-74875.3203,-74917.5000,104890.8750,-74893.8516,-74780.3750,-74845.3750,-74815.4219,-74813.4297,-74878.0313,-74890.4141,123823.6563,-74973.3594,-74834.1328,-74879.8828,98806.1484,-74922.5547,-74903.1328,-75011.6953,-74915.0859,-74897.1172,35.991760
79376.6484,-70378.9609,-70437.9688,-70480.3906,104952.5938,-70454.0781,-70344.7578,-70407.9688,-70375.4063,-70374.1719,-70438.5938,-70451.8906,123953.4922,-70529.4531,-70395.9453,-70439.5547,98802.2188,-70478.9844,-70464.2266,-70569.7266,-70476.2969,-70455.8281,35.995758
66822.6172,-72081.2188,-72141.5078,-72183.9922,104941.1250,-72158.6719,-72047.6953,-72111.5781,-72080.0391,-72078.5625,-72143.0469,-72155.9453,123961.8125,-72235.4297,-72099.8594,-72144.1875,99082.4219,-72184.4219,-72167.9688,-72274.6328,-72179.9922,-72160.4141,35.999756
4429.5122,-80257.1797,-80315.5781,-80357.7344,104860.2578,-80337.3516,-80218.4375,-80286.0313,-80259.2813,-80256.5313,-80321.0781,-80332.2344,123855.9922,-80421.5938,-80275.5313,-80323.9375,99180.3438,-80369.5391,-80344.6406,-80456.9375,-80356.3516,-80341.1953,36.003754
-21040.0098,-83415.0313,-83472.5000,-83514.3594,104814.7656,-83495.9219,-83373.9688,-83442.9063,-83418.0000,-83414.8281,-83479.2734,-83489.9297,123815.3125,-83583.2031,-83432.8906,-83483.0234,99054.7266,-83531.3906,-83503.0313,-83617.4453,-83514.6328,-83501.2422,36.007751
40246.7266,-76736.2656,-76796.9219,-76839.0391,104858.9375,-76816.4141,-76701.1484,-76766.9766,-76738.2109,-76735.9297,-76800.4141,-76812.4844,123925.9531,-76897.6875,-76755.9063,-76802.8047,98928.1250,-76846.5234,-76825.1563,-76934.8594,-76836.9766,-76820.0625,36.011749
75625.0469,-70462.4844,-70522.3672,-70564.8125,104923.1719,-70538.6406,-70429.2031,-70492.2813,-70459.9609,-70458.6641,-70523.0391,-70536.3125,124055.5078,-70614.0547,-70480.3438,-70524.0391,98962.8125,-70563.0938,-70548.2734,-70653.7969,-70560.4531,-70540.0234,36.015747
47264.2813,-73310.4766,-73371.2109,-73413.6328,104906.9922,-73389.0703,-73276.9297,-73341.2813,-73310.8125,-73309.0234,-73373.4844,-73386.1172,124049.1563,-73467.2500,-73330.0547,-73374.9375,99065.5234,-73416.1094,-73398.3672,-73505.9453,-73410.4141,-73391.4844,36.019745
-43669.2031,-82664.5469,-82724.8984,-82766.9609,104814.2344,-82747.8984,-82626.7109,-82695.3281,-82670.2969,-82667.2344,-82731.7578,-82742.5078,123924.2813,-82834.7813,-82685.4688,-82735.1797,99062.8359,-82782.9688,-82755.2500,-82869.2422,-82766.8984,-82753.1250,36.023743
-57804.4688,-85052.3438,-85111.2344,-85153.1250,104780.4375,-85135.6016,-85012.0391,-85081.7344,-85057.9531,-85054.4219,-85119.0859,-85129.4297,123891.9844,-85224.5156,-85072.1250,-85123.0625,99026.1797,-85172.6797,-85142.3047,-85257.8672,-85153.7031,-85141.3438,36.027740
40927.8750,-75352.7109,-75413.7578,-75455.9297,104848.9922,-75432.4844,-75318.4688,-75383.8047,-75354.2734,-75352.2422,-75416.7734,-75428.9531,124029.7344,-75512.6406,-75372.6953,-75418.7813,99105.1719,-75461.6797,-75441.6953,-75550.6172,-75453.6094,-75435.9297,36.031738
40927.8750,-75352.7109,-75413.7578,-75455.9297,104848.9922,-75432.4844,-75318.4688,-75383.8047,-75354.2734,-75352.2422,-75416.7734,-75428.9531,124029.7344,-75512.6406,-75372.6953,-75418.7813,99105.1719,-75461.6797,-75441.6953,-75550.6172,-75453.6094,-75435.9297,36.035736
79501.3281,-67600.3672,-67662.7031,-67705.1094,104897.2500,-67677.2109,-67570.5938,-67632.5547,-67598.5313,-67597.5703,-67661.9453,-67675.7344,124143.5547,-67750.0156,-67620.0391,-67662.3281,99126.5391,-67699.8750,-67688.0547,-67791.6094,-67700.2344,-67678.3047,36.039734
79501.3281,-67600.3672,-67662.7031,-67705.1094,104897.2500,-67677.2109,-67570.5938,-67632.5547,-67598.5313,-67597.5703,-67661.9453,-67675.7344,124143.5547,-67750.0156,-67620.0391,-67662.3281,99126.5391,-67699.8750,-67688.0547,-67791.6094,-67700.2344,-67678.3047,36.043732
60226.9727,-71707.0078,-71768.0078,-71810.2734,104863.1406,-71784.9063,-71674.3047,-71738.0547,-71706.4922,-71705.0391,-71769.4609,-71782.3750,124108.0313,-71861.3672,-71726.2734,-71770.5781,99044.9609,-71810.2031,-71794.1797,-71900.5781,-71806.2500,-71786.3359,36.047729
60226.9727,-71707.0078,-71768.0078,-71810.2734,104863.1406,-71784.9063,-71674.3047,-71738.0547,-71706.4922,-71705.0391,-71769.4609,-71782.3750,124108.0313,-71861.3672,-71726.2734,-71770.5781,99044.9609,-71810.2031,-71794.1797,-71900.5781,-71806.2500,-71786.3359,36.051727
-32012.3008,-82292.4609,-82354.3750,-82396.4609,104777.8203,-82377.1719,-82256.4063,-82324.9141,-82299.4297,-82296.4141,-82361.0547,-82371.7422,123980.8281,-82463.5156,-82314.9219,-82364.3906,98958.4766,-82411.5234,-82384.2109,-82498.0313,-82395.8359,-82381.7969,36.055725
-32012.3008,-82292.4609,-82354.3750,-82396.4609,104777.8203,-82377.1719,-82256.4063,-82324.9141,-82299.4297,-82296.4141,-82361.0547,-82371.7422,123980.8281,-82463.5156,-82314.9219,-82364.3906,98958.4766,-82411.5234,-82384.2109,-82498.0313,-82395.8359,-82381.7969,36.059723
-30780.9219,-83703.4375,-83765.1016,-83807.0391,104746.2813,-83788.5547,-83666.4844,-83735.6875,-83710.7891,-83707.5703,-83772.2344,-83782.6484,123953.5625,-83876.3047,-83725.7422,-83775.9688,98990.5781,-83824.5781,-83795.6797,-83910.3672,-83807.3281,-83794.1406,36.063721
-30780.9219,-83703.4375,-83765.1016,-83807.0391,104746.2813,-83788.5547,-83666.4844,-83735.6875,-83710.7891,-83707.5703,-83772.2344,-83782.6484,123953.5625,-83876.3047,-83725.7422,-83775.9688,98990.5781,-83824.5781,-83795.6797,-83910.3672,-83807.3281,-83794.1406,36.067719
59473.2734,-74553.6797,-74613.9844,-74656.1406,104817.9219,-74632.3359,-74519.1250,-74584.1719,-74553.9297,-74552.0469,-74616.5781,-74628.9375,124097.2578,-74711.5547,-74572.7031,-74618.3438,99092.7891,-74660.9453,-74641.8828,-74750.1328,-74653.7969,-74635.6875,36.071716
59473.2734,-74553.6797,-74613.9844,-74656.1406,104817.9219,-74632.3359,-74519.1250,-74584.1719,-74553.9297,-74552.0469,-74616.5781,-74628.9375,124097.2578,-74711.5547,-74572.7031,-74618.3438,99092.7891,-74660.9453,-74641.8828,-74750.1328,-74653.7969,-74635.6875,36.075714
74653.3281,-69150.5469,-69210.5234,-69252.9219,104879.7266,-69225.9688,-69117.8047,-69180.4375,-69147.2188,-69146.1953,-69210.6953,-69224.0625,124223.1875,-69300.1094,-69168.2500,-69211.2344,99120.5078,-69250.1250,-69236.7578,-69341.3438,-69248.7656,-69227.7500,36.079712
74653.3281,-69150.5469,-69210.5234,-69252.9219,104879.7266,-69225.9688,-69117.8047,-69180.4375,-69147.2188,-69146.1953,-69210.6953,-69224.0625,124223.1875,-69300.1094,-69168.2500,-69211.2344,99120.5078,-69250.1250,-69236.7578,-69341.3438,-69248.7656,-69227.7500,36.083710
19554.2441,-74346.3906,-74407.5234,-74449.8359,104833.1172,-74425.8516,-74312.8203,-74377.5938,-74347.4453,-74345.7188,-74410.1172,-74422.5859,124173.2344,-74504.7109,-74366.1953,-74411.8359,99032.3984,-74454.2188,-74435.5313,-74543.7578,-74447.3516,-74429.0078,36.087708
-64499.2188,-83634.9688,-83695.9219,-83737.9219,104737.5234,-83719.5078,-83597.5078,-83666.5078,-83641.6094,-83638.4609,-83702.8516,-83713.4453,124029.8516,-83806.8125,-83656.3438,-83706.6328,98935.1016,-83755.5625,-83726.7734,-83841.4375,-83738.3516,-83725.0078,36.091705
-64499.2188,-83634.9688,-83695.9219,-83737.9219,104737.5234,-83719.5078,-83597.5078,-83666.5078,-83641.6094,-83638.4609,-83702.8516,-83713.4453,124029.8516,-83806.8125,-83656.3438,-83706.6328,98935.1016,-83755.5625,-83726.7734,-83841.4375,-83738.3516,-83725.0078,36.095703
-35695.5352,-83967.2109,-84027.7578,-84069.7109,104718.1875,-84051.4297,-83929.1406,-83998.3203,-83973.6250,-83970.2891,-84034.8438,-84045.2813,124007.4063,-84139.2031,-83988.2656,-84038.6250,98963.9766,-84087.7969,-84058.5391,-84173.4063,-84070.1641,-84057.1328,36.099701
-35695.5352,-83967.2109,-84027.7578,-84069.7109,104718.1875,-84051.4297,-83929.1406,-83998.3203,-83973.6250,-83970.2891,-84034.8438,-84045.2813,124007.4063,-84139.2031,-83988.2656,-84038.6250,98963.9766,-84087.7969,-84058.5391,-84173.4063,-84070.1641,-84057.1328,36.103699
55714.7617,-75133.8672,-75194.8828,-75237.1094,104783.9688,-75213.5313,-75099.7813,-75165.0234,-75135.1406,-75133.1250,-75197.5703,-75209.8438,124146.2344,-75293.2109,-75153.5391,-75199.5547,99072.6719,-75242.4922,-75222.8672,-75331.5469,-75234.7813,-75216.9453,36.107697
55714.7617,-75133.8672,-75194.8828,-75237.1094,104783.9688,-75213.5313,-75099.7813,-75165.0234,-75135.1406,-75133.1250,-75197.5703,-75209.8438,124146.2344,-75293.2109,-75153.5391,-75199.5547,99072.6719,-75242.4922,-75222.8672,-75331.5469,-75234.7813,-75216.9453,36.111694
61037.4727,-70646.4219,-70707.6641,-70750.0156,104837.7031,-70723.8672,-70614.3438,-70677.6016,-70645.2344,-70643.9375,-70708.3516,-70721.5234,124266.4375,-70799.3516,-70665.5313,-70709.2266,99109.1328,-70749.3281,-70734.3047,-70839.9375,-70746.3281,-70726.0391,36.115692
9873.0107,-74929.2109,-74987.5547,-75029.7500,104809.0234,-75006.1719,-74892.5781,-74957.6250,-74927.7813,-74925.8828,-74990.3672,-75002.7031,124227.5703,-75085.5625,-74946.3359,-74992.1563,99028.1016,-75035.1641,-75015.5781,-75124.2109,-75027.4531,-75009.5703,36.119690
4494.3320,-81046.3750,-81101.2031,-81143.2188,104716.0625,-81123.2813,-81003.8594,-81071.5391,-81045.1641,-81042.3516,-81106.8750,-81117.9609,124078.6172,-81208.1797,-81061.1484,-81109.9844,98920.4141,-81157.2109,-81131.2188,-81244.0938,-81142.9063,-81128.2500,36.123688
4494.3320,-81046.3750,-81101.2031,-81143.2188,104716.0625,-81123.2813,-81003.8594,-81071.5391,-81045.1641,-81042.3516,-81106.8750,-81117.9609,124078.6172,-81208.1797,-81061.1484,-81109.9844,98920.4141,-81157.2109,-81131.2188,-81244.0938,-81142.9063,-81128.2500,36.127686
10749.8252,-82257.6094,-82312.3047,-82354.2813,104682.3594,-82335.0859,-82214.4297,-82282.8047,-82256.9219,-82253.8828,-82318.4766,-82329.2266,124044.5313,-82421.0234,-82272.3672,-82321.9609,98908.1641,-82369.9063,-82342.6875,-82456.2969,-82354.3516,-82340.2734,36.131683
10749.8252,-82257.6094,-82312.3047,-82354.2813,104682.3594,-82335.0859,-82214.4297,-82282.8047,-82256.9219,-82253.8828,-82318.4766,-82329.2266,124044.5313,-82421.0234,-82272.3672,-82321.9609,98908.1641,-82369.9063,-82342.6875,-82456.2969,-82354.3516,-82340.2734,36.135681
10382.0947,-77174.1094,-77230.6406,-77272.8359,104757.6641,-77250.5078,-77134.7734,-77200.9297,-77172.1641,-77169.8438,-77234.4609,-77246.2656,124198.9375,-77331.9844,-77189.8047,-77236.8281,98947.6563,-77281.2422,-77259.3125,-77369.5078,-77271.1641,-77254.4219,36.139679
4267.1265,-73271.2266,-73328.6719,-73370.9844,104813.6719,-73346.3516,-73234.4844,-73298.7656,-73267.8750,-73266.1328,-73330.6641,-73343.3594,124322.6094,-73424.3125,-73287.1406,-73332.1797,98894.6875,-73374.0000,-73356.1875,-73463.6328,-73368.2109,-73349.2813,36.143677
-10102.5859,-81999.1563,-82053.8516,-82095.9219,104678.5156,-82076.5625,-81956.0859,-82024.3281,-81998.4922,-81995.5156,-82059.9141,-82070.9531,124111.2344,-82162.2578,-82014.0000,-82063.3984,98514.8203,-82111.3672,-82084.1875,-82197.6641,-82095.7891,-82081.6172,36.147675
-5429.5513,-77971.8438,-78027.7656,-78069.8594,104715.2813,-78048.0234,-77931.6094,-77997.9766,-77969.7422,-77967.3516,-78031.8359,-78043.5703,124227.6406,-78130.1641,-77987.1563,-78034.4063,98445.2344,-78079.5156,-78056.4688,-78167.2656,-78068.2891,-78052.0000,36.151672
9528.3027,-75610.0234,-75667.0469,-75709.3125,104730.0781,-75686.0625,-75571.7344,-75637.0469,-75607.8359,-75605.8203,-75670.4219,-75682.4922,124294.5156,-75766.1563,-75626.1875,-75672.2344,98187.9922,-75714.3828,-75693.8672,-75803.0313,-75705.7344,-75688.0781,36.155670
6776.1768,-83142.6328,-83196.7656,-83238.7188,104607.5703,-83219.9453,-83098.4375,-83167.1484,-83142.0938,-83138.8984,-83203.4688,-83214.2422,124101.9297,-83307.0938,-83157.3594,-83207.1406,97880.4766,-83255.2188,-83226.4531,-83340.8203,-83238.0078,-83224.5703,36.159668
-1324.2290,-78282.9375,-78338.6406,-78380.6797,104677.4141,-78359.0469,-78242.2344,-78308.8203,-78280.8125,-78278.4688,-78343.0625,-78354.6875,124255.4219,-78441.7656,-78298.1797,-78345.6563,97860.6484,-78390.3594,-78366.8672,-78477.7734,-78378.7578,-78362.5547,36.163666
-8568.3398,-74455.6484,-74513.0469,-74555.3359,104724.6016,-74531.3516,-74418.2500,-74483.0938,-74452.9844,-74451.1094,-74515.5469,-74527.9766,124374.0625,-74610.4766,-74471.8516,-74517.2969,97756.0625,-74559.8047,-74540.4297,-74648.6328,-74552.4063,-74533.9688,36.167664
-11235.1709,-76872.6328,-76929.2031,-76971.3828,104683.9688,-76948.9844,-76833.4688,-76899.3672,-76870.8672,-76868.5625,-76933.0469,-76945.0078,124314.5234,-77030.2344,-76888.7031,-76935.2813,97534.0234,-76979.7422,-76957.7031,-77067.7578,-76969.5234,-76952.5859,36.171661
-7742.2417,-82668.8594,-82723.2031,-82765.0859,104591.8984,-82746.2891,-82625.0313,-82693.5859,-82668.2813,-82665.0859,-82729.6563,-82740.4297,124152.1328,-82832.7266,-82683.6172,-82733.1719,97316.7656,-82781.6250,-82753.1953,-82867.3203,-82764.7500,-82751.0938,36.175659
7723.9355,-78078.5781,-78134.5859,-78176.6094,104636.3125,-78154.9297,-78038.3438,-78104.7969,-78076.5859,-78074.1719,-78138.5859,-78150.3203,124277.3281,-78237.2031,-78093.9063,-78141.2969,97272.1719,-78186.1797,-78162.8438,-78273.5469,-78174.6172,-78158.3516,36.179657
11362.0391,-73878.5000,-73936.1953,-73978.5078,104690.9609,-73954.1406,-73841.6484,-73906.2891,-73875.5938,-73873.7656,-73938.2500,-73950.7891,124399.2969,-74032.6406,-73894.6875,-73939.9063,97203.2422,-73982.2813,-73963.3750,-74071.1953,-73975.2656,-73956.6484,36.183655
1509.4803,-82643.9844,-82697.9609,-82739.9844,104552.0938,-82720.9609,-82599.9531,-82668.4609,-82643.0234,-82639.8984,-82704.4688,-82715.2422,124172.9453,-82807.5547,-82658.3594,-82707.9531,96825.2734,-82756.6797,-82728.0938,-82842.0469,-82739.6719,-82725.9453,36.187653
-6497.8979,-84146.6016,-84200.4063,-84242.2656,104530.9688,-84224.2500,-84101.6953,-84170.8984,-84146.2891,-84142.9375,-84207.4453,-84217.9922,124151.5781,-84312.0938,-84161.0234,-84211.3594,96777.5313,-84261.5781,-84231.2266,-84346.2031,-84242.7422,-84229.9297,36.191650
-11001.1035,-78964.1719,-79020.1641,-79062.0547,104593.2422,-79040.9922,-78923.5391,-78990.3906,-78962.6953,-78960.0859,-79024.7656,-79036.2344,124308.4375,-79124.0781,-78979.6875,-79027.4922,96807.6172,-79073.8984,-79049.3750,-79160.7344,-79061.0703,-79045.4219,36.195648
-9552.8223,-74744.0781,-74801.3203,-74843.4531,104651.8438,-74819.9141,-74706.3438,-74771.3672,-74741.4141,-74739.3594,-74804.0469,-74816.3359,124442.6406,-74899.0859,-74760.1875,-74805.8984,96767.2031,-74849.2578,-74829.3047,-74937.7266,-74841.1016,-74823.1094,36.199646
-2785.6309,-76839.7969,-76895.8281,-76937.8984,104617.1563,-76915.7266,-76800.0781,-76865.9922,-76837.1797,-76834.8984,-76899.5234,-76911.4531,124385.6875,-76996.5938,-76855.0625,-76901.7813,96612.7734,-76946.4375,-76924.2188,-77034.1484,-76935.9531,-76919.0781,36.203644
5437.1509,-82460.7031,-82514.9453,-82556.9219,104516.3984,-82537.8828,-82416.9375,-82485.2891,-82459.6250,-82456.5000,-82521.0938,-82531.8438,124211.4297,-82623.7578,-82475.1172,-82524.6250,96458.9297,-82572.7969,-82544.2266,-82658.0000,-82555.7891,-82541.9688,36.207642
10777.5195,-83401.9766,-83456.2734,-83498.3359,104493.8438,-83479.7188,-83357.7891,-83426.6563,-83401.5547,-83398.2188,-83462.8672,-83473.4609,124184.5703,-83566.6016,-83416.6172,-83466.6875,96445.2266,-83515.1250,-83485.3750,-83599.8828,-83497.0391,-83483.6953,36.211639
10384.6875,-78092.0078,-78148.1094,-78190.2891,104569.5234,-78168.5625,-78051.7266,-78118.3125,-78090.1563,-78087.5156,-78152.1797,-78163.8672,124355.1094,-78250.6641,-78107.4063,-78154.8594,96517.8672,-78199.9922,-78176.2734,-78287.0234,-78188.1016,-78171.8906,36.215637
4274.6816,-74293.3516,-74350.4375,-74392.7500,104600.8828,-74368.7422,-74255.7109,-74320.5078,-74290.0859,-74288.1875,-74352.7813,-74365.1875,124473.4844,-74447.3750,-74309.0859,-74354.5703,96500.9688,-74397.5781,-74377.9766,-74486.0938,-74389.7734,-74371.5156,36.219635
-4051.2312,-77070.8438,-77126.9297,-77169.1719,104520.2422,-77146.9063,-77031.1719,-77097.1094,-77068.5625,-77066.2656,-77130.7500,-77142.6875,124394.5859,-77228.0703,-77086.3125,-77133.0547,96358.2344,-77178.2656,-77155.6016,-77265.8203,-77167.3594,-77150.5547,36.223633
-10109.1572,-83201.8438,-83256.0625,-83298.0625,104424.9531,-83279.6250,-83157.7813,-83226.5625,-83201.5078,-83198.3516,-83262.8594,-83273.4531,124225.8281,-83366.3281,-83216.5938,-83266.4141,96235.1641,-83316.1016,-83286.7109,-83401.1719,-83298.2188,-83284.7422,36.227631
-10735.9004,-84219.0469,-84273.0234,-84314.9531,104398.8281,-84297.0781,-84174.2969,-84243.6094,-84218.9531,-84215.6719,-84280.2656,-84290.6406,124199.6094,-84384.8516,-84233.6875,-84284.0859,96257.4063,-84334.4219,-84303.8906,-84419.0234,-84315.4453,-84302.4609,36.231628
-5427.9868,-78572.3906,-78628.0703,-78670.2031,104471.8047,-78648.8594,-78531.6641,-78598.4531,-78570.6484,-78568.1016,-78632.6719,-78644.2734,124373.4375,-78731.6250,-78587.8594,-78635.3594,96359.1016,-78681.1797,-78656.9922,-78768.1250,-78668.7031,-78652.7031,36.235626
2826.6016,-74204.3672,-74261.5234,-74303.8125,104531.1953,-74279.8047,-74166.8438,-74231.6172,-74201.3047,-74199.4531,-74264.0234,-74276.5000,124510.7031,-74358.5313,-74220.4609,-74265.7266,96372.2266,-74307.9063,-74288.2578,-74396.4141,-74300.0781,-74281.7500,36.239624
9533.0186,-76445.2891,-76501.9922,-76544.2578,104477.8203,-76521.6172,-76406.4609,-76472.1563,-76443.2109,-76441.0859,-76505.6797,-76517.6406,124432.8047,-76602.2656,-76461.3359,-76507.7813,96257.1563,-76551.4141,-76529.4453,-76639.1484,-76541.1094,-76523.9688,36.243622
11220.2402,-82354.3516,-82409.0703,-82451.1563,104372.7188,-82432.0938,-82311.2109,-82379.5156,-82354.1016,-82350.8203,-82415.5313,-82426.3438,124247.0859,-82518.1484,-82369.5469,-82418.9688,96134.6250,-82466.8438,-82438.3516,-82552.2969,-82449.8594,-82435.8438,36.247620
-1309.1639,-78470.1328,-78525.6797,-78567.7656,104425.1797,-78546.3984,-78429.4063,-78496.0625,-78468.1875,-78465.5703,-78530.2109,-78541.9063,124399.5234,-78629.1641,-78485.5078,-78532.8984,96258.9453,-78578.7656,-78554.7344,-78665.7969,-78566.4219,-78550.3750,36.251617
-11231.7959,-77259.7656,-77316.2266,-77358.4219,104429.3125,-77336.2969,-77220.4922,-77286.4531,-77258.0625,-77255.7188,-77320.2891,-77332.1406,124462.1719,-77417.7422,-77275.7188,-77322.6641,96203.5391,-77367.9688,-77345.1719,-77455.3594,-77356.7734,-77340.0938,36.255615
-7748.5225,-82963.0547,-83017.2578,-83059.2813,104333.1797,-83040.6641,-82919.1797,-82987.7109,-82962.5391,-82959.3047,-83023.9453,-83034.6016,124285.5703,-83127.1172,-82977.6953,-83027.5156,96122.0859,-83077.0469,-83047.9297,-83162.0547,-83059.3906,-83045.7109,36.259613
23.0894,-83528.7109,-83582.3750,-83624.4219,104308.3672,-83606.1172,-83484.1172,-83552.9844,-83527.9063,-83524.6016,-83589.2422,-83599.7656,124264.7422,-83693.1094,-83542.8125,-83592.8594,96186.6172,-83642.1484,-83612.3047,-83726.8828,-83623.8203,-83610.5391,36.263611
7720.8286,-77756.8672,-77812.9453,-77855.1484,104390.1563,-77833.2891,-77716.9453,-77783.3516,-77754.7422,-77752.2422,-77816.9063,-77828.5938,124455.6484,-77915.0234,-77772.2422,-77819.2969,96324.0781,-77863.9531,-77840.5313,-77951.1953,-77852.3984,-77835.9688,36.267609
11360.3408,-73638.3984,-73696.0938,-73738.4922,104440.2656,-73714.2188,-73601.7891,-73666.3828,-73635.5156,-73633.6641,-73698.2578,-73710.8906,124591.3906,-73792.2031,-73654.7422,-73699.7578,96358.6797,-73742.0469,-73723.1328,-73830.7578,-73735.0703,-73716.2031,36.271606
8866.9365,-76375.1719,-76431.7422,-76474.0781,104388.4063,-76451.4375,-76336.2813,-76402.0391,-76372.9141,-76370.6797,-76435.2500,-76447.2969,124512.7344,-76531.8594,-76391.0156,-76437.3984,96264.4453,-76481.6094,-76459.7734,-76569.2969,-76471.6172,-76454.2734,36.275604
1512.4755,-82634.9297,-82688.9531,-82731.0000,104292.4766,-82712.1797,-82590.9453,-82659.4297,-82633.9297,-82630.7500,-82695.3281,-82706.1641,124328.1328,-82798.2578,-82649.2813,-82698.9063,96174.3203,-82747.7422,-82718.9297,-82832.8594,-82730.4844,-82716.6484,36.279602
-10988.9219,-78401.8047,-78458.0156,-78499.9688,104343.7031,-78478.6016,-78361.5703,-78428.2656,-78400.1719,-78397.7109,-78462.2656,-78473.8906,124493.1563,-78561.0156,-78417.3828,-78464.9453,96389.6172,-78511.0781,-78486.9609,-78598.0078,-78498.8281,-78482.6953,36.283600
-9550.1182,-74323.1016,-74380.6328,-74422.8125,104400.7266,-74398.8750,-74285.8438,-74350.6406,-74320.2656,-74318.4297,-74382.8906,-74395.3672,124634.7344,-74477.4609,-74339.2188,-74384.6797,96449.9844,-74428.1563,-74408.4219,-74516.6641,-74420.3281,-74402.0234,36.287598
-2790.3469,-76652.6875,-76708.9688,-76751.1719,104351.8906,-76728.7500,-76613.3281,-76679.1563,-76650.1641,-76647.9922,-76712.4609,-76724.4844,124551.5859,-76809.3281,-76668.0703,-76714.6016,96376.4531,-76759.3281,-76737.1563,-76847.1016,-76748.9141,-76731.9063,36.291595
5425.4390,-82273.3672,-82327.7266,-82369.7500,104246.1406,-82350.7266,-82229.7813,-82298.1328,-82272.3203,-82269.2344,-82333.8984,-82344.7656,124350.7500,-82436.4063,-82287.8516,-82337.2734,96301.1016,-82385.0391,-82356.7188,-82470.5391,-82368.2109,-82354.3047,36.295593
10768.1982,-82947.6563,-83002.1250,-83044.1250,104231.5234,-83025.4609,-82903.9609,-82972.5313,-82947.0938,-82943.8984,-83008.5625,-83019.2266,124330.9688,-83111.7656,-82962.3203,-83012.0938,96375.4688,-83060.7813,-83031.7422,-83145.9375,-83043.2344,-83029.6875,36.299591
10382.3398,-77526.3750,-77582.7656,-77624.7891,104309.3047,-77603.0391,-77486.8359,-77553.0156,-77524.3594,-77522.0156,-77586.5469,-77598.4844,124524.7188,-77684.3984,-77542.0234,-77588.9375,96511.3438,-77634.2188,-77611.2656,-77721.5703,-77623.0469,-77606.5313,36.303589
4275.0166,-73924.5703,-73981.8359,-74024.0781,104352.2031,-74000.0547,-73887.2891,-73951.8828,-73921.3750,-73919.5000,-73984.0000,-73996.5391,124657.5781,-74078.2344,-73940.5313,-73985.6563,96539.5938,-74028.2813,-74009.1016,-74116.9766,-74021.0391,-74002.5078,36.307587
-4036.7920,-76988.1641,-77044.2500,-77086.4688,104301.9063,-77064.2734,-76948.3828,-77014.3594,-76985.7500,-76983.4297,-77047.9609,-77059.8047,124568.7500,-77145.1016,-77003.5469,-77050.2344,96449.2266,-77095.4297,-77072.8828,-77182.9844,-77084.6797,-77067.7422,36.311584
-10092.2813,-83168.0000,-83222.2266,-83264.2891,104206.8203,-83245.7578,-83123.8750,-83192.6563,-83167.6172,-83164.4688,-83228.9766,-83239.7031,124371.6719,-83332.3047,-83182.8203,-83232.6641,96372.5859,-83282.1719,-83252.8281,-83367.2188,-83264.3828,-83250.7891,36.315582
-10747.4785,-83905.4922,-83959.5859,-84001.5625,104181.9688,-83983.4844,-83861.0156,-83930.1016,-83905.5391,-83902.1641,-83966.6953,-83977.2891,124347.8047,-84070.9688,-83920.3359,-83970.6094,96453.8516,-84020.4922,-83990.3906,-84105.1875,-84001.8984,-83988.7969,36.319580
-5443.0518,-78096.6563,-78152.5156,-78194.6484,104260.8516,-78173.0313,-78056.3359,-78122.7656,-78094.8203,-78092.3203,-78156.8516,-78168.4922,124551.3359,-78255.2891,-78112.0547,-78159.4453,96617.2188,-78204.8594,-78181.2344,-78291.9922,-78193.0391,-78176.7422,36.323578
2811.3577,-73884.6484,-73941.8281,-73984.2031,104312.2109,-73960.1094,-73847.4141,-73911.9375,-73881.6094,-73879.7578,-73944.2656,-73956.8047,124695.1016,-74038.3828,-73900.6797,-73945.9609,96671.1797,-73987.7109,-73968.5547,-74076.4531,-73980.4297,-73961.9219,36.327576
9522.6475,-76417.2813,-76473.9688,-76516.1875,104252.4688,-76493.6328,-76378.5234,-76444.2188,-76415.2891,-76413.1016,-76477.5625,-76489.6563,124596.2188,-76574.2109,-76433.3750,-76479.7578,96586.0391,-76523.4063,-76501.6328,-76611.3203,-76513.5078,-76496.2500,36.331573
11214.9424,-82408.6250,-82463.2734,-82505.3594,104153.5391,-82486.4297,-82365.4609,-82433.7188,-82408.1953,-82405.2031,-82469.7109,-82480.4375,124392.8594,-82572.3516,-82423.7500,-82473.0391,96498.4219,-82521.3438,-82493.0234,-82606.8828,-82504.6641,-82490.6953,36.335571
6780.7593,-83373.6563,-83427.6406,-83469.6797,104133.9375,-83451.2656,-83329.3594,-83398.1328,-83373.2109,-83369.9688,-83434.5625,-83445.0469,124374.6719,-83538.2813,-83388.4297,-83438.1875,96553.4531,-83487.5391,-83458.1484,-83572.5000,-83469.6328,-83456.2891,36.339569
-1312.5837,-78124.4609,-78180.1875,-78222.3438,104199.6719,-78200.7969,-78083.9609,-78150.5000,-78122.4766,-78120.0391,-78184.5703,-78196.1641,124574.7813,-78283.0000,-78139.9297,-78187.1406,96683.8281,-78232.8203,-78209.2891,-78319.9766,-78221.0000,-78204.8203,36.343567
-8557.4102,-74608.6016,-74665.7969,-74708.1797,104250.7891,-74684.5547,-74571.1641,-74636.0703,-74606.0313,-74604.1094,-74668.5703,-74681.0000,124726.2813,-74763.4297,-74624.8750,-74670.4063,96726.9453,-74713.7891,-74693.8047,-74802.1406,-74705.7188,-74687.6172,36.347565
-8557.4102,-74608.6016,-74665.7969,-74708.1797,104250.7891,-74684.5547,-74571.1641,-74636.0703,-74606.0313,-74604.1094,-74668.5703,-74681.0000,124726.2813,-74763.4297,-74624.8750,-74670.4063,96726.9453,-74713.7891,-74693.8047,-74802.1406,-74705.7188,-74687.6172,36.351563
-11226.6992,-77516.7422,-77573.0469,-77615.2891,104203.4688,-77593.4531,-77477.1797,-77543.4297,-77515.0859,-77512.6250,-77577.2500,-77589.0469,124640.4297,-77674.8984,-77532.6328,-77579.6406,96648.3828,-77624.2344,-77601.2109,-77711.6953,-77613.0078,-77596.4453,36.355560
-11226.6992,-77516.7422,-77573.0469,-77615.2891,104203.4688,-77593.4531,-77477.1797,-77543.4297,-77515.0859,-77512.6250,-77577.2500,-77589.0469,124640.4297,-77674.8984,-77532.6328,-77579.6406,96648.3828,-77624.2344,-77601.2109,-77711.6953,-77613.0078,-77596.4453,36.359558
-7749.0142,-83247.5938,-83301.7109,-83343.6406,104098.4844,-83325.2188,-83203.4531,-83272.2031,-83247.1016,-83243.7969,-83308.4375,-83319.0938,124431.0391,-83411.8828,-83262.0547,-83311.9922,96587.9609,-83360.4063,-83331.0781,-83445.5156,-83342.6328,-83329.1328,36.363556
18.5743,-83523.2813,-83577.1016,-83619.0156,104082.7734,-83600.6875,-83478.7813,-83547.6016,-83522.4766,-83519.3438,-83583.8750,-83594.4922,124416.1953,-83687.6563,-83537.4297,-83587.5625,96677.9531,-83636.5781,-83606.8516,-83721.4297,-83618.4531,-83605.0469,36.367554
18.5743,-83523.2813,-83577.1016,-83619.0156,104082.7734,-83600.6875,-83478.7813,-83547.6016,-83522.4766,-83519.3438,-83583.8750,-83594.4922,124416.1953,-83687.6563,-83537.4297,-83587.5625,96677.9531,-83636.5781,-83606.8516,-83721.4297,-83618.4531,-83605.0469,36.371552
7707.9316,-77607.0625,-77663.1250,-77705.3203,104169.2031,-77683.4609,-77567.2344,-77633.3750,-77605.0547,-77602.7500,-77667.2813,-77679.1484,124631.6250,-77765.0938,-77622.6016,-77669.7188,96829.6328,-77714.8672,-77691.6641,-77802.1250,-77703.5313,-77686.9531,36.375549
7707.9316,-77607.0625,-77663.1250,-77705.3203,104169.2031,-77683.4609,-77567.2344,-77633.3750,-77605.0547,-77602.7500,-77667.2813,-77679.1484,124631.6250,-77765.0938,-77622.6016,-77669.7188,96829.6328,-77714.8672,-77691.6641,-77802.1250,-77703.5313,-77686.9531,36.379547
11345.5215,-73706.2813,-73764.1328,-73806.4609,104210.9609,-73782.2344,-73669.6719,-73734.2656,-73703.8047,-73701.9688,-73766.5000,-73779.0625,124767.5000,-73860.3750,-73722.9609,-73768.0156,96863.1563,-73810.7969,-73791.8438,-73899.5781,-73803.8281,-73785.0313,36.383545
8864.1201,-76726.2031,-76782.7578,-76825.0000,104153.1328,-76802.5391,-76687.0469,-76753.0078,-76724.2578,-76722.0234,-76786.5078,-76798.5313,124660.2813,-76883.3828,-76742.0781,-76788.6797,96757.7031,-76833.5391,-76811.4766,-76921.2422,-76823.3203,-76806.0859,36.387543
8864.1201,-76726.2031,-76782.7578,-76825.0000,104153.1328,-76802.5391,-76687.0469,-76753.0078,-76724.2578,-76722.0234,-76786.5078,-76798.5313,124660.2813,-76883.3828,-76742.0781,-76788.6797,96757.7031,-76833.5391,-76811.4766,-76921.2422,-76823.3203,-76806.0859,36.391541
1519.7621,-83022.1797,-83076.0000,-83118.0000,104059.1719,-83099.4688,-82977.7891,-83046.5391,-83021.4844,-83018.4219,-83082.8594,-83093.5703,124448.4063,-83186.0625,-83036.6406,-83086.3672,96665.1641,-83135.7266,-83106.6016,-83220.8203,-83118.2656,-83104.5391,36.395538
-6491.8179,-83891.4375,-83945.1719,-83987.1250,104034.9844,-83969.1953,-83846.7344,-83915.7344,-83891.0547,-83887.7031,-83952.3203,-83962.7813,124422.0078,-84056.4609,-83905.8516,-83956.0781,96739.5313,-84006.1641,-83976.0625,-84090.8828,-83987.6406,-83974.4531,36.399536
-10994.8223,-78334.4766,-78390.5156,-78432.6484,104108.6797,-78411.3438,-78294.2656,-78360.9453,-78332.8516,-78330.3672,-78395.0078,-78406.5859,124630.8203,-78493.6016,-78350.0391,-78397.5547,96898.6563,-78443.5078,-78419.7266,-78530.5938,-78431.5078,-78415.3047,36.403534
-10994.8223,-78334.4766,-78390.5156,-78432.6484,104108.6797,-78411.3438,-78294.2656,-78360.9453,-78332.8516,-78330.3672,-78395.0078,-78406.5859,124630.8203,-78493.6016,-78350.0391,-78397.5547,96898.6563,-78443.5078,-78419.7266,-78530.5938,-78431.5078,-78415.3047,36.407532
-9552.0176,-74445.6328,-74502.8516,-74545.2578,104167.5313,-74521.5156,-74408.2422,-74473.1016,-74443.0391,-74441.1406,-74505.6250,-74517.9844,124785.2734,-74600.2656,-74461.7266,-74507.2344,96959.9219,-74550.5313,-74530.9531,-74639.1563,-74542.7969,-74524.5156,36.411530
-2788.8494,-77066.3281,-77122.3906,-77164.6328,104111.6719,-77142.4609,-77026.5859,-77092.6406,-77064.2500,-77061.8594,-77126.3203,-77138.2813,124681.1563,-77223.5313,-77081.8203,-77128.6250,96887.4141,-77173.5547,-77151.0703,-77261.3516,-77162.8906,-77146.0859,36.415527
5434.6924,-82722.0625,-82776.1953,-82818.1719,104006.0391,-82799.6016,-82678.0703,-82746.6250,-82721.4375,-82718.2578,-82782.7656,-82793.5625,124457.8828,-82885.7188,-82736.6797,-82786.2578,96822.7031,-82835.3125,-82806.6406,-82920.8750,-82818.3281,-82804.5391,36.419525
5434.6924,-82722.0625,-82776.1953,-82818.1719,104006.0391,-82799.6016,-82678.0703,-82746.6250,-82721.4375,-82718.2578,-82782.7656,-82793.5625,124457.8828,-82885.7188,-82736.6797,-82786.2578,96822.7031,-82835.3125,-82806.6406,-82920.8750,-82818.3281,-82804.5391,36.423523
10774.9258,-83128.7969,-83183.1953,-83225.1953,103995.8438,-83206.7109,-83084.8750,-83153.6484,-83128.5469,-83125.3750,-83189.9063,-83200.5625,124442.3047,-83293.2578,-83143.6563,-83193.4766,96905.3125,-83242.8516,-83213.6875,-83328.1250,-83225.3516,-83211.8281,36.427521
10389.1572,-77551.9922,-77608.3125,-77650.4922,104075.5313,-77628.7422,-77512.2969,-77578.5625,-77550.2031,-77547.8984,-77612.3594,-77624.1875,124655.8750,-77710.1484,-77567.8125,-77614.7344,97050.8047,-77660.1484,-77637.1484,-77747.5469,-77649.0391,-77632.5234,36.431519
-4028.7676,-77444.2578,-77500.0703,-77542.3984,104065.0703,-77520.5859,-77404.2656,-77470.4922,-77442.3984,-77440.0547,-77504.5391,-77516.3125,124684.8203,-77601.9453,-77459.9453,-77506.8828,96984.8438,-77551.8125,-77528.8750,-77639.3594,-77540.7266,-77524.1172,36.435516
-10735.1846,-84044.8828,-84098.9063,-84140.9297,103947.0313,-84122.9531,-84000.3359,-84069.3984,-84045.0625,-84041.7031,-84106.2578,-84116.6953,124441.8359,-84210.5078,-84059.7422,-84110.1953,97026.4609,-84159.4297,-84129.3047,-84244.1484,-84140.7734,-84127.7188,36.439514
9515.7852,-76875.3828,-76931.8203,-76974.0156,104017.4375,-76951.9141,-76836.0625,-76901.9531,-76873.5234,-76871.2891,-76935.8203,-76947.7813,124692.4219,-77032.8047,-76891.4297,-76938.0313,97153.8203,-76981.5938,-76959.6250,-77069.5313,-76971.4063,-76954.3906,36.443512
6780.8037,-83553.5234,-83607.2969,-83649.4141,103897.5859,-83631.1484,-83509.0000,-83577.9063,-83553.0078,-83549.6797,-83614.2266,-83624.9609,124440.0000,-83718.1016,-83568.0313,-83618.2109,97113.6328,-83666.6406,-83637.1172,-83751.6250,-83648.6719,-83635.3516,36.447510
-1308.6499,-78183.1797,-78238.8125,-78281.0391,103976.5078,-78259.5156,-78142.5469,-78209.1328,-78181.1250,-78178.5547,-78242.9922,-78254.8594,124662.0859,-78341.5391,-78198.3594,-78245.7891,97249.8203,-78290.8047,-78267.2422,-78378.0469,-78279.0703,-78262.7734,36.451508
-11235.3047,-77910.0000,-77966.0781,-78008.2969,103975.9063,-77986.8672,-77870.0078,-77936.3047,-77908.1641,-77905.7734,-77970.2813,-77982.0625,124697.9844,-78068.3125,-77925.5313,-77972.8047,97196.7344,-78017.4609,-77994.2188,-78104.9297,-78006.0469,-77989.6797,36.455505
-7763.2300,-83649.3203,-83703.0781,-83745.1016,103870.3594,-83727.1953,-83604.7266,-83673.6172,-83648.6484,-83645.5000,-83709.9844,-83720.6250,124465.0781,-83813.8047,-83663.6719,-83713.7656,97132.5391,-83762.8047,-83733.1406,-83847.8516,-83744.7656,-83731.5781,36.459503
11.7347,-83675.1641,-83728.7344,-83770.7813,103859.6797,-83752.8125,-83630.4141,-83699.3203,-83674.4219,-83671.1406,-83735.7813,-83746.3047,124453.5703,-83839.6484,-83689.4844,-83739.5547,97224.3594,-83788.7109,-83759.0703,-83873.7344,-83770.6719,-83757.5078,36.463501
7707.1943,-77660.9531,-77716.9219,-77759.1875,103945.1719,-77737.6016,-77621.0156,-77687.3750,-77658.9453,-77656.4609,-77721.1016,-77732.7969,124680.8906,-77819.0469,-77676.6016,-77723.5859,97368.3281,-77768.8438,-77745.9609,-77856.3984,-77757.6953,-77741.3750,36.467499
11346.6611,-73971.1094,-74028.5703,-74071.0859,103990.5938,-74047.1953,-73934.1328,-73998.8203,-73968.4453,-73966.5234,-74031.0313,-74043.5234,124820.6563,-74125.2422,-73987.5547,-74032.7109,97385.6328,-74075.5781,-74056.4688,-74164.4297,-74068.3594,-74050.0781,36.471497
8858.9795,-77281.7578,-77337.9531,-77380.2578,103934.7344,-77358.3125,-77242.1250,-77308.2031,-77279.7891,-77277.4453,-77341.9766,-77353.8438,124698.2969,-77439.3359,-77297.4063,-77344.2500,97264.2422,-77389.4063,-77366.8281,-77477.0234,-77378.6328,-77362.0000,36.475494
1521.8855,-83560.8750,-83614.5234,-83656.5859,103832.9219,-83638.4141,-83516.1484,-83584.9922,-83560.0703,-83556.7891,-83621.3125,-83631.9297,124463.0938,-83725.0469,-83575.0000,-83625.0469,97163.7188,-83674.4688,-83644.9375,-83759.5391,-83656.4531,-83643.2891,36.479492
-6490.2983,-84152.6406,-84206.1953,-84248.2578,103811.7109,-84230.4922,-84107.6016,-84176.7578,-84151.8984,-84148.5703,-84213.1875,-84223.6953,124442.5078,-84317.5703,-84166.7422,-84217.0547,97235.5391,-84266.2109,-84236.0313,-84351.0547,-84247.5000,-84234.8047,36.483490
-10995.0234,-78511.4609,-78567.4063,-78609.6484,103899.0156,-78588.5078,-78471.0938,-78537.7891,-78509.8047,-78507.2344,-78571.8984,-78583.5234,124673.0859,-78670.6719,-78527.1328,-78574.4688,97388.7578,-78619.6875,-78595.8125,-78706.8828,-78607.4844,-78591.7734,36.487488
-2793.6104,-77624.5234,-77680.2656,-77722.5781,103891.7109,-77700.8750,-77584.2891,-77650.4453,-77622.1719,-77619.8750,-77684.3984,-77696.1328,124692.0156,-77782.0078,-77639.7188,-77686.7969,97343.4297,-77732.0078,-77709.1016,-77819.6328,-77720.9922,-77704.3828,36.491486
5426.3330,-83236.5781,-83290.4844,-83332.6875,103790.5234,-83314.2656,-83192.2500,-83261.0078,-83235.9688,-83232.7500,-83297.2813,-83307.9922,124457.7031,-83400.7500,-83251.0156,-83301.0156,97267.4766,-83350.3203,-83321.1953,-83435.5078,-83332.7578,-83319.3438,36.495483
10776.0664,-83334.2969,-83388.5703,-83430.6563,103783.8828,-83412.3281,-83290.2656,-83359.0625,-83333.8750,-83330.7891,-83395.2969,-83406.0000,124447.5547,-83498.9609,-83349.1406,-83399.0469,97348.9063,-83448.5391,-83419.2969,-83533.5859,-83430.8984,-83417.6016,36.499481
10392.8008,-77650.3828,-77706.6406,-77748.8438,103858.9844,-77727.1172,-77610.5938,-77676.8906,-77648.4844,-77646.1797,-77710.7109,-77722.5313,124662.8047,-77808.6797,-77666.2500,-77713.2578,97485.4297,-77758.2969,-77735.3672,-77845.6953,-77747.0781,-77730.8047,36.503479
4290.1489,-74434.0781,-74491.1406,-74533.5000,103907.7109,-74509.8281,-74396.4141,-74461.2109,-74431.1250,-74429.1641,-74493.6875,-74506.0078,124799.1250,-74588.2813,-74450.0781,-74495.5469,97504.0703,-74537.4297,-74517.8750,-74626.1484,-74529.7656,-74511.7500,36.507477
-4023.9172,-77999.6953,-78055.4375,-78097.6641,103855.4063,-78076.2266,-77959.3516,-78025.6484,-77997.6641,-77995.2031,-78059.7578,-78071.4219,124675.7656,-78157.8750,-78014.9844,-78062.3438,97399.5547,-78106.6953,-78083.3828,-78194.1563,-78095.2266,-78078.9531,36.511475
-10086.2910,-84086.1172,-84139.9219,-84181.9609,103747.0703,-84164.1953,-84041.4141,-84110.4844,-84085.9219,-84082.6563,-84147.0938,-84157.6016,124436.4688,-84251.5000,-84100.6719,-84151.0078,97330.0859,-84199.9375,-84169.8906,-84284.8750,-84181.4531,-84168.4609,36.515472
-10739.8564,-84196.0234,-84249.8047,-84291.8203,103736.7422,-84274.1016,-84151.1875,-84220.3672,-84195.8203,-84192.5781,-84257.0625,-84267.5703,124426.0781,-84361.6250,-84210.7109,-84261.0234,97440.5078,-84310.2656,-84280.0234,-84395.0625,-84291.6406,-84278.7500,36.519470
-5442.5601,-78147.6875,-78203.2969,-78245.5391,103832.9922,-78224.0625,-78107.0938,-78173.6172,-78145.4766,-78143.1016,-78207.6328,-78219.3047,124658.8672,-78306.0938,-78162.9531,-78210.2500,97615.3359,-78255.8438,-78232.3359,-78343.0859,-78244.1797,-78227.9766,36.523468
2813.6152,-74319.8359,-74376.7031,-74419.1250,103875.7500,-74395.4063,-74282.1563,-74346.8828,-74316.6875,-74314.8281,-74379.3125,-74391.7422,124787.9766,-74473.8828,-74335.6641,-74381.1016,97654.0938,-74424.2188,-74404.7266,-74512.8203,-74416.6406,-74398.4063,36.527466
9522.6025,-77373.0391,-77429.1875,-77471.5469,103809.3906,-77449.7344,-77333.3906,-77399.5547,-77371.2109,-77368.8203,-77433.3281,-77445.1484,124651.2734,-77530.8672,-77388.9141,-77435.8047,97541.4922,-77480.7734,-77458.0938,-77568.3984,-77470.0234,-77453.3984,36.531464
11227.1240,-83316.0547,-83370.2578,-83412.2813,103709.8125,-83394.1094,-83271.8438,-83340.8047,-83315.7031,-83312.4609,-83376.9453,-83387.5625,124417.4922,-83480.5000,-83330.8516,-83380.7656,97442.4688,-83429.8281,-83400.6328,-83515.0313,-83412.2578,-83398.9844,36.535461
6799.8027,-83693.4922,-83747.3125,-83789.3359,103694.7266,-83771.3438,-83648.8047,-83717.8281,-83692.7266,-83689.4844,-83753.9766,-83764.4297,124401.8281,-83857.9766,-83707.7500,-83757.9297,97510.4844,-83806.5703,-83777.0625,-83891.6406,-83788.5547,-83775.4766,36.539459
-1293.8307,-78249.3672,-78305.0000,-78347.1328,103773.3984,-78325.8516,-78208.7266,-78275.2734,-78246.9063,-78244.5547,-78309.0234,-78320.6641,124619.2656,-78407.5938,-78264.3359,-78311.7734,97645.4688,-78356.4766,-78333.1406,-78443.9609,-78344.8047,-78328.7578,36.543457
-8542.7021,-75075.7969,-75132.8359,-75175.1016,103827.6719,-75151.9688,-75037.8672,-75102.9766,-75072.9375,-75071.0547,-75135.5234,-75147.7656,124758.7344,-75230.7188,-75091.6641,-75137.3984,97669.2734,-75180.2656,-75160.2422,-75268.9375,-75172.0625,-75154.3438,36.547455
-11230.0527,-78400.5078,-78456.5000,-78498.6328,103768.1484,-78477.6016,-78360.1406,-78426.7734,-78398.9453,-78396.4375,-78460.9688,-78472.5469,124631.9609,-78559.4297,-78416.0391,-78463.5391,97572.3125,-78509.0234,-78485.3750,-78596.3516,-78496.9766,-78481.1328,36.551453
-7760.3467,-84051.4766,-84105.2109,-84147.2734,103662.0859,-84129.5469,-84006.4609,-84075.6797,-84051.1406,-84047.7891,-84112.3125,-84122.7734,124399.8359,-84216.5859,-84065.7813,-84116.2500,97510.7578,-84166.1406,-84136.1406,-84251.0313,-84147.6328,-84134.6875,36.555450
9.2313,-83766.9141,-83820.6250,-83862.5391,103658.8516,-83844.6563,-83721.8984,-83790.9844,-83766.0234,-83762.7344,-83827.3750,-83837.9453,124399.1875,-83931.3359,-83780.9531,-83831.2656,97616.2813,-83880.9766,-83851.3828,-83966.0234,-83862.9844,-83849.9063,36.559448
7705.6069,-77683.7969,-77739.8594,-77782.0313,103746.0234,-77760.4609,-77643.7422,-77710.1250,-77681.6719,-77679.3281,-77743.7422,-77755.7266,124625.7656,-77841.7813,-77699.2891,-77746.3828,97765.4766,-77791.7344,-77768.8438,-77879.3125,-77780.6250,-77764.2188,36.563446
11349.3438,-74234.8594,-74292.1875,-74334.6563,103787.1719,-74310.9844,-74197.6875,-74262.3906,-74232.0391,-74230.2266,-74294.5781,-74307.2578,124752.5234,-74389.1484,-74251.1719,-74296.4844,97769.8984,-74339.1953,-74319.9297,-74428.0469,-74331.7266,-74313.4688,36.567444
8867.5850,-77788.3594,-77844.3281,-77886.5938,103727.5781,-77865.0000,-77748.2344,-77814.4922,-77786.1250,-77783.7734,-77848.3047,-77860.1953,124620.8984,-77946.2109,-77803.7188,-77850.8359,97633.5781,-77895.5156,-77872.4453,-77983.0859,-77884.2031,-77867.7500,36.571442
1522.8243,-83993.8047,-84047.2969,-84089.3594,103624.2266,-84071.6328,-83948.7656,-84017.8125,-83993.0703,-83989.8047,-84054.2891,-84064.8438,124388.5938,-84158.4297,-84007.8906,-84058.1797,97534.8047,-84107.3750,-84077.6250,-84192.5156,-84088.9844,-84076.0156,36.575439
-6489.5156,-84283.0625,-84336.5938,-84378.5703,103612.8750,-84361.0000,-84238.0234,-84307.2266,-84282.6797,-84279.3047,-84343.7422,-84354.3203,124383.2500,-84448.3047,-84297.3203,-84347.7891,97624.7969,-84397.4375,-84367.3047,-84482.4609,-84378.8828,-84366.0938,36.579437
-10992.4092,-78581.5313,-78637.4141,-78679.6094,103708.0859,-78658.5547,-78541.0547,-78607.7734,-78579.8594,-78577.3125,-78641.8828,-78653.5703,124619.1719,-78740.7188,-78597.0469,-78644.6328,97785.0078,-78690.4766,-78666.7578,-78777.8750,-78678.5625,-78662.5781,36.583435
-9552.0625,-75097.9922,-75154.9922,-75197.2578,103758.6016,-75174.1875,-75060.0391,-75125.1250,-75095.2656,-75093.2344,-75157.7188,-75170.0313,124756.1250,-75253.0469,-75113.9766,-75159.7969,97817.4219,-75203.2031,-75183.2422,-75291.9609,-75195.0000,-75177.1641,36.587433
-2802.0369,-78170.2188,-78225.6953,-78267.8750,103694.1875,-78246.6172,-78129.4922,-78195.8750,-78168.0000,-78165.5234,-78230.0078,-78241.6719,124623.0625,-78328.3516,-78185.3281,-78232.6641,97715.9219,-78278.1719,-78254.8594,-78365.7266,-78266.5078,-78250.3906,36.591431
5414.1064,-83699.1406,-83752.9688,-83794.9844,103595.3906,-83776.9766,-83654.3750,-83723.3281,-83698.5859,-83695.2734,-83759.7813,-83770.3594,124395.1406,-83863.7891,-83713.3359,-83763.5859,97642.4531,-83812.8906,-83783.4531,-83898.1406,-83795.0078,-83781.7969,36.595428
10762.7666,-83476.0938,-83530.3438,-83572.3672,103588.6406,-83554.1484,-83431.9063,-83500.7734,-83475.6719,-83472.5391,-83537.0938,-83547.6875,124392.7969,-83640.9141,-83490.7344,-83540.8516,97730.6328,-83589.2422,-83560.0234,-83674.5781,-83571.5859,-83558.3984,36.599426
10380.9990,-77743.4297,-77799.5781,-77841.8438,103670.7656,-77820.2344,-77703.5781,-77769.8047,-77741.5313,-77739.2734,-77803.6250,-77815.4063,124614.5469,-77901.7734,-77759.1719,-77806.2422,97864.1172,-77850.7188,-77827.7891,-77938.3203,-77839.5469,-77823.3438,36.603424
4279.1519,-74769.4688,-74826.2188,-74868.6406,103718.8594,-74845.3984,-74731.4688,-74796.4453,-74766.5625,-74764.6641,-74829.1484,-74841.3906,124743.2031,-74924.1172,-74785.4922,-74831.0469,97865.9453,-74873.4453,-74853.6641,-74962.0938,-74865.5313,-74847.5859,36.607422
-4035.0486,-78549.9766,-78605.4531,-78647.6484,103655.6953,-78626.5703,-78509.0000,-78575.7891,-78548.2031,-78545.7500,-78610.1875,-78621.7188,124605.8281,-78708.8516,-78565.4141,-78612.8906,97745.4297,-78657.9531,-78634.1250,-78745.2188,-78645.8203,-78629.7891,36.611420
-10096.1484,-84569.6328,-84623.3438,-84665.2969,103548.8984,-84647.8828,-84524.4844,-84593.7969,-84569.5234,-84566.3047,-84630.6719,-84641.1797,124370.6016,-84735.4375,-84584.2266,-84634.7422,97680.1406,-84684.8125,-84654.3047,-84769.6797,-84665.8828,-84653.1172,36.615417
-10747.0313,-84400.0078,-84453.9844,-84495.8750,103548.7188,-84478.4141,-84355.1641,-84424.4375,-84399.8906,-84396.6563,-84461.0938,-84471.5313,124375.4766,-84565.7891,-84414.6641,-84465.0938,97801.6875,-84515.2266,-84484.9219,-84600.0547,-84496.4531,-84483.7109,36.619415
-5444.5942,-78287.2266,-78343.0391,-78385.1719,103641.7734,-78363.9141,-78246.8125,-78313.3828,-78285.3047,-78282.9141,-78347.3750,-78359.0469,124606.5234,-78446.0156,-78302.6953,-78350.0391,97972.9453,-78395.7031,-78372.1172,-78483.0078,-78383.8516,-78367.8750,36.623413
2810.1506,-74692.4609,-74749.3281,-74791.7031,103681.3125,-74768.2344,-74654.6250,-74719.5078,-74689.3828,-74687.5469,-74751.9609,-74764.3906,124726.9297,-74846.8672,-74708.3125,-74753.8672,97999.0078,-74796.5313,-74776.8438,-74885.2031,-74788.6641,-74770.7422,36.627411
9522.9160,-77968.1094,-78024.0547,-78066.3516,103616.7813,-78044.9766,-77928.0547,-77994.3047,-77966.0781,-77963.7109,-78028.1953,-78039.9297,124584.6875,-78126.3438,-77983.5313,-78030.7656,97876.8359,-78075.3594,-78052.1563,-78162.7500,-78063.8672,-78047.6172,36.631409
11230.3203,-83806.4531,-83860.4531,-83902.6328,103517.4063,-83884.7734,-83762.1563,-83830.9531,-83806.0313,-83802.8125,-83867.3203,-83877.9141,124353.2109,-83971.3906,-83821.0703,-83871.1172,97786.3984,-83920.3359,-83890.6563,-84005.4063,-83902.2344,-83889.2031,36.635406
6796.9863,-83869.7578,-83923.4453,-83965.5547,103506.9922,-83947.6250,-83825.0703,-83893.9375,-83868.9688,-83865.7109,-83930.1953,-83940.6797,124349.2969,-84034.3750,-83883.9297,-83934.0859,97872.3203,-83983.6563,-83953.9766,-84068.7500,-83965.5781,-83952.6797,36.639404
-1296.3341,-78378.2188,-78433.8125,-78475.9922,103597.4922,-78454.7734,-78337.5859,-78404.1016,-78375.9844,-78373.4844,-78437.9219,-78449.5469,124576.8203,-78536.5859,-78393.2188,-78440.6094,98009.6875,-78486.4922,-78462.9375,-78573.7969,-78474.6719,-78458.7578,36.643402
-8545.9209,-75432.3750,-75489.2578,-75531.5234,103651.3125,-75508.5938,-75394.2656,-75459.4453,-75429.8047,-75427.8125,-75492.1641,-75504.4375,124708.6953,-75587.8516,-75448.3516,-75494.2656,98023.1016,-75538.0313,-75517.5313,-75626.4766,-75529.3359,-75511.7891,36.647400
-11229.2480,-78965.9609,-79021.7969,-79064.0156,103582.5391,-79043.2734,-78925.3672,-78992.1094,-78964.4609,-78962.0469,-79026.3359,-79037.9375,124566.5156,-79125.5313,-78981.5625,-79029.2188,97915.1406,-79075.3984,-79051.2344,-79162.6328,-79062.8750,-79047.2344,36.651398
-7763.1182,-84537.8906,-84591.3828,-84633.4219,103482.4688,-84616.0781,-84492.7656,-84561.9922,-84537.3594,-84534.0703,-84598.6016,-84609.0625,124339.3750,-84703.3438,-84552.0859,-84602.6250,97853.9688,-84652.6016,-84622.2969,-84737.4531,-84633.6953,-84621.1094,36.655396
1.5199,-83958.3984,-84011.8672,-84053.8672,103487.2578,-84036.1641,-83913.3828,-83982.4063,-83957.4375,-83954.1797,-84018.7266,-84029.3047,124350.3750,-84123.0000,-83972.3516,-84022.6406,97967.7813,-84071.5703,-84041.8828,-84156.6406,-84053.2813,-84040.4766,36.659393
7699.6841,-77827.2969,-77883.3281,-77925.5781,103572.7500,-77904.0313,-77787.3281,-77853.6016,-77825.1719,-77822.7813,-77887.1953,-77898.9297,124573.5078,-77985.4375,-77842.6953,-77889.8125,98123.1016,-77934.6484,-77911.6719,-78022.2734,-77923.3672,-77907.2500,36.663391
11346.7061,-74626.7500,-74684.1250,-74726.5469,103613.8125,-74703.0781,-74589.5547,-74654.3516,-74624.0938,-74622.2813,-74686.6953,-74698.9922,124691.2344,-74781.5391,-74643.0703,-74688.5313,98125.3828,-74731.3125,-74711.7109,-74820.1406,-74723.6484,-74705.5859,36.667389
8871.0938,-78413.3125,-78469.1719,-78511.5313,103554.0391,-78490.3828,-78373.0156,-78439.5078,-78411.5234,-78409.2031,-78473.6875,-78485.1719,124551.9844,-78572.2109,-78428.8516,-78476.2813,97989.7344,-78521.7188,-78498.0703,-78609.1641,-78509.7813,-78493.7813,36.671387
1523.3831,-84524.4375,-84577.7266,-84619.8594,103447.9844,-84602.4922,-84479.0625,-84548.2891,-84523.8125,-84520.4844,-84584.9844,-84595.3594,124317.9375,-84689.7734,-84538.5156,-84588.9688,97908.8438,-84639.2109,-84608.9297,-84724.1484,-84620.4141,-84607.7422,36.675385
-6489.6499,-84529.8047,-84583.1797,-84625.1328,103443.6484,-84607.8281,-84484.4531,-84553.7188,-84529.1094,-84525.7344,-84590.3047,-84600.6328,124323.9297,-84695.1563,-84543.8594,-84594.3516,98022.7031,-84644.6250,-84614.2500,-84729.4453,-84625.8281,-84613.2422,36.679382
-10998.8906,-78802.8594,-78858.7656,-78900.8750,103543.2422,-78879.9766,-78762.2734,-78829.0156,-78801.1172,-78798.6328,-78863.1875,-78874.6328,124562.4922,-78962.2734,-78818.3516,-78865.9375,98192.9766,-78911.9141,-78887.9297,-78999.1094,-78899.7813,-78884.0000,36.683380
-9553.8506,-75583.8281,-75640.8516,-75683.1172,103587.3438,-75660.2969,-75545.6953,-75610.9453,-75581.2578,-75579.2500,-75643.6875,-75655.8281,124685.4688,-75739.4844,-75599.7422,-75645.7422,98222.7500,-75689.0391,-75668.5625,-75777.5547,-75680.4297,-75662.8906,36.687378
5414.3745,-84525.9141,-84579.3594,-84621.3750,103422.1406,-84603.9453,-84480.5859,-84549.8984,-84525.4453,-84522.0938,-84586.5781,-84597.0391,124317.9609,-84691.3594,-84540.1484,-84590.6016,98050.8203,-84639.6641,-84609.3750,-84724.6406,-84620.8594,-84608.2578,36.691376
10771.8418,-84031.7344,-84085.7188,-84127.6953,103423.3047,-84109.8594,-83987.1250,-84056.2813,-84031.4688,-84028.2266,-84092.6875,-84103.2656,124329.2969,-84197.0703,-84046.3984,-84096.6484,98156.4063,-84145.6172,-84116.0078,-84230.8438,-84127.4453,-84114.6641,36.695374
10405.1387,-78279.8984,-78335.9063,-78378.0469,103508.5547,-78356.7891,-78239.6875,-78306.2266,-78278.2891,-78275.8047,-78340.3125,-78351.9609,124553.5469,-78438.8203,-78295.5859,-78343.0391,98294.5391,-78388.1875,-78364.9219,-78475.7656,-78376.7031,-78360.7422,36.699371
4308.0303,-75552.8281,-75609.6016,-75651.8047,103556.3906,-75628.8906,-75514.5391,-75579.5859,-75550.3203,-75548.2031,-75612.7500,-75624.9141,124674.6094,-75708.4141,-75568.7422,-75614.8125,98286.7422,-75658.2188,-75637.8750,-75746.7734,-75649.6563,-75632.2188,36.703369
-4007.9805,-79545.2031,-79600.6172,-79642.7500,103487.5469,-79622.2109,-79503.8594,-79570.7734,-79543.7344,-79541.1172,-79605.6016,-79616.8906,124525.5625,-79705.2422,-79560.4063,-79608.4375,98155.3594,-79654.5078,-79629.8516,-79741.6094,-79641.4297,-79626.1641,36.707367
-4007.9805,-79545.2031,-79600.6172,-79642.7500,103487.5469,-79622.2109,-79503.8594,-79570.7734,-79543.7344,-79541.1172,-79605.6016,-79616.8906,124525.5625,-79705.2422,-79560.4063,-79608.4375,98155.3594,-79654.5078,-79629.8516,-79741.6094,-79641.4297,-79626.1641,36.711365
-10071.1143,-85451.2109,-85504.7813,-85546.6016,103383.3438,-85529.7734,-85405.5234,-85475.1719,-85451.4297,-85447.9453,-85512.4063,-85522.6016,124294.4453,-85618.0625,-85465.5781,-85516.5625,98091.8750,-85566.4297,-85535.1172,-85651.0078,-85546.5391,-85534.3984,36.715363
-10071.1143,-85451.2109,-85504.7813,-85546.6016,103383.3438,-85529.7734,-85405.5234,-85475.1719,-85451.4297,-85447.9453,-85512.4063,-85522.6016,124294.4453,-85618.0625,-85465.5781,-85516.5625,98091.8750,-85566.4297,-85535.1172,-85651.0078,-85546.5391,-85534.3984,36.719360
-10741.0410,-84978.3359,-85032.0000,-85073.8906,103389.0156,-85056.7422,-84933.0938,-85002.4063,-84978.3984,-84975.0000,-85039.5313,-85049.7500,124311.2344,-85144.7656,-84992.8828,-85043.6719,98224.9375,-85093.0469,-85062.2891,-85177.7813,-85073.7969,-85061.3906,36.723358
-5459.7261,-78841.6172,-78897.1172,-78939.2734,103494.0234,-78918.3984,-78800.7578,-78867.3203,-78839.6719,-78837.1953,-78901.6328,-78913.0313,124545.3438,-79000.7656,-78856.7969,-78904.4063,98403.6406,-78949.5078,-78925.5938,-79036.8594,-78937.3281,-78921.6172,36.727356
-5459.7261,-78841.6172,-78897.1172,-78939.2734,103494.0234,-78918.3984,-78800.7578,-78867.3203,-78839.6719,-78837.1953,-78901.6328,-78913.0313,124545.3438,-79000.7656,-78856.7969,-78904.4063,98403.6406,-78949.5078,-78925.5938,-79036.8594,-78937.3281,-78921.6172,36.731354
2790.4812,-75509.2656,-75565.7891,-75608.1484,103571.0703,-75585.2344,-75470.9063,-75535.9531,-75506.3828,-75504.3906,-75568.9219,-75580.9453,124671.7266,-75664.5156,-75524.9063,-75570.8906,98442.6484,-75614.2969,-75593.9531,-75702.8516,-75605.7578,-75588.2109,36.735352
9505.9287,-79007.7344,-79063.3438,-79105.5469,103512.8906,-79084.6953,-78967.0078,-79033.6172,-79006.1719,-79003.6484,-79068.0625,-79079.5078,124526.1016,-79167.2422,-79023.0703,-79070.9063,98319.3516,-79116.9453,-79092.8984,-79204.2734,-79104.5391,-79088.7813,36.739349
9505.9287,-79007.7344,-79063.3438,-79105.5469,103512.8906,-79084.6953,-78967.0078,-79033.6172,-79006.1719,-79003.6484,-79068.0625,-79079.5078,124526.1016,-79167.2422,-79023.0703,-79070.9063,98319.3516,-79116.9453,-79092.8984,-79204.2734,-79104.5391,-79088.7813,36.743347
11221.1113,-84741.2500,-84794.9375,-84836.9141,103414.2500,-84819.5234,-84696.1016,-84765.4375,-84741.1172,-84737.7656,-84802.2734,-84812.5547,124297.0625,-84907.1875,-84755.4844,-84806.2500,98240.0703,-84856.6094,-84826.1875,-84941.5469,-84837.7188,-84825.0938,36.747345
6804.9658,-84507.2734,-84560.8672,-84602.8438,103411.0156,-84585.2813,-84462.1016,-84531.3203,-84506.8203,-84503.4297,-84568.0469,-84578.3047,124305.4922,-84672.7891,-84521.4219,-84571.8906,98343.4453,-84622.0234,-84591.8984,-84707.0703,-84603.4766,-84590.8203,36.751343
6804.9658,-84507.2734,-84560.8672,-84602.8438,103411.0156,-84585.2813,-84462.1016,-84531.3203,-84506.8203,-84503.4297,-84568.0469,-84578.3047,124305.4922,-84672.7891,-84521.4219,-84571.8906,98343.4453,-84622.0234,-84591.8984,-84707.0703,-84603.4766,-84590.8203,36.755341
-1282.8113,-78985.3594,-79040.7031,-79082.8125,103504.2891,-79062.0078,-78944.2578,-79010.9531,-78983.2813,-78980.7109,-79045.2188,-79056.6875,124535.9375,-79144.5313,-79000.3125,-79048.0156,98487.3281,-79094.0156,-79070.0313,-79181.2500,-79081.7422,-79066.1172,36.759338
-8536.3320,-76284.2422,-76340.7266,-76382.9922,103548.7188,-76360.6172,-76245.3984,-76310.8906,-76281.8281,-76279.5469,-76344.0547,-76356.1953,124653.8438,-76440.5938,-76299.9531,-76346.3828,98496.4688,-76390.4375,-76369.3359,-76478.8125,-76381.1797,-76364.0625,36.763336
-11228.4434,-80049.8438,-80105.3203,-80147.4531,103477.6016,-80127.3594,-80008.4219,-80075.6172,-80048.7656,-80045.8828,-80110.4844,-80121.7891,124504.4609,-80210.6641,-80065.2656,-80113.5703,98386.6094,-80160.1953,-80135.1172,-80247.2500,-80146.7578,-80131.6719,36.767334
-7764.7051,-85522.7344,-85576.0000,-85617.9766,103383.5859,-85601.1875,-85476.9531,-85546.5859,-85522.7813,-85519.2031,-85583.6875,-85593.8125,124284.1250,-85689.4141,-85536.8125,-85587.9297,98340.1641,-85638.7422,-85607.4922,-85723.4063,-85618.9609,-85606.7500,36.771332
-7764.7051,-85522.7344,-85576.0000,-85617.9766,103383.5859,-85601.1875,-85476.9531,-85546.5859,-85522.7813,-85519.2031,-85583.6875,-85593.8125,124284.1250,-85689.4141,-85536.8125,-85587.9297,98340.1641,-85638.7422,-85607.4922,-85723.4063,-85618.9609,-85606.7500,36.775330
1.9222,-84640.1328,-84693.4141,-84735.4141,103391.1406,-84718.0234,-84594.7109,-84663.9141,-84639.3906,-84635.9922,-84700.5234,-84710.9844,124305.0000,-84805.4219,-84653.9688,-84704.6406,98477.5156,-84754.7031,-84724.5938,-84839.7734,-84736.0859,-84723.4766,36.779327
7702.3213,-78477.9297,-78533.7656,-78575.8984,103476.5469,-78554.7344,-78437.5000,-78503.9922,-78475.9688,-78473.3984,-78537.9219,-78549.5938,124529.5859,-78636.7188,-78493.2188,-78540.7188,98633.5547,-78586.2969,-78562.9844,-78673.9141,-78574.6953,-78558.6875,36.783325
7702.3213,-78477.9297,-78533.7656,-78575.8984,103476.5469,-78554.7344,-78437.5000,-78503.9922,-78475.9688,-78473.3984,-78537.9219,-78549.5938,124529.5859,-78636.7188,-78493.2188,-78540.7188,98633.5547,-78586.2969,-78562.9844,-78673.9141,-78574.6953,-78558.6875,36.787323
11350.7969,-75516.8438,-75573.9063,-75616.2188,103522.0313,-75593.2422,-75478.8672,-75544.0469,-75514.4297,-75512.2109,-75576.7891,-75588.8828,124645.7031,-75672.5234,-75532.7969,-75578.8438,98628.2109,-75622.5000,-75602.2891,-75711.2578,-75614.1406,-75596.4766,36.791321
8874.1563,-79491.2500,-79546.7500,-79588.8125,103458.0156,-79568.5000,-79450.1016,-79517.0234,-79489.7500,-79486.9375,-79551.5781,-79562.8438,124498.2734,-79651.1953,-79506.3594,-79554.3672,98490.0781,-79600.7500,-79576.4531,-79688.2109,-79588.0547,-79572.6328,36.795319
1529.2616,-85472.7578,-85525.6406,-85567.6172,103351.2422,-85550.8750,-85426.6172,-85496.2891,-85472.3750,-85468.6875,-85533.3516,-85543.5391,124266.6406,-85639.1641,-85486.5000,-85537.4844,98417.2734,-85588.2500,-85557.2188,-85673.1406,-85568.6016,-85556.4141,36.799316
-10999.7627,-79397.5938,-79453.1875,-79495.2734,103453.8594,-79474.7969,-79356.6484,-79423.5469,-79395.9844,-79393.1953,-79457.8984,-79469.3203,124526.1016,-79557.5859,-79412.7734,-79460.8281,98707.2656,-79506.3594,-79481.9766,-79593.7578,-79493.7109,-79478.4219,36.803314
5403.2881,-85307.6172,-85360.7969,-85402.6406,103333.1641,-85385.8047,-85261.8672,-85331.1797,-85307.3516,-85303.8672,-85368.4375,-85378.7188,124273.7500,-85473.9844,-85321.7031,-85372.6172,98529.9766,-85422.2188,-85391.4141,-85507.1094,-85402.7500,-85390.5234,36.807312
10756.4189,-84475.2188,-84529.0859,-84571.0391,103328.6719,-84553.5156,-84430.3828,-84499.5625,-84474.9922,-84471.5781,-84536.2188,-84546.6563,124288.1250,-84641.1172,-84489.7031,-84540.2656,98645.6172,-84589.2578,-84559.3516,-84674.4141,-84570.8594,-84558.2344,36.811310
10387.2578,-78683.2109,-78739.1797,-78781.3828,103425.7422,-78760.3281,-78642.8906,-78709.4297,-78681.4453,-78678.8984,-78743.4297,-78755.0938,124526.8828,-78842.5781,-78698.6094,-78746.3125,98788.2031,-78791.2578,-78767.8125,-78878.8359,-78779.5234,-78763.7656,36.815308
-4019.5588,-80398.2422,-80453.0703,-80495.1563,103394.6094,-80475.2656,-80356.1016,-80423.3359,-80396.6484,-80393.7422,-80458.3438,-80469.6094,124486.8047,-80558.9453,-80412.9453,-80461.4922,98626.8672,-80507.0469,-80481.8594,-80594.1484,-80493.3438,-80478.5234,36.819305
-10084.6152,-86218.5625,-86271.7188,-86313.6250,103292.3438,-86297.2656,-86172.2969,-86242.2109,-86218.6797,-86215.0078,-86279.5156,-86289.6250,124261.3438,-86385.9609,-86232.5391,-86283.9922,98562.9453,-86333.8750,-86302.2266,-86418.4609,-86313.5859,-86301.8906,36.823303
-5460.9556,-79313.4609,-79368.6953,-79410.8281,103396.9297,-79390.2422,-79272.2266,-79339.0078,-79311.5000,-79308.9063,-79373.3672,-79384.8750,124531.7344,-79472.9453,-79328.3750,-79376.4063,98872.5156,-79422.3203,-79398.1563,-79509.7578,-79409.8906,-79394.3984,36.827301
