Fp1,Fp2,F3,F4,C3,C4,P3,P4,O1,O2,F7,F8,T7,T8,P7,P8,Fz,Cz,Pz,AFz,Cpz,POz,TimeStamp
3900.9380,3209.2410,3370.3301,1036.0704,41401.2188,43508.8086,56496.8477,44657.4883,4912.4438,424.1243,3264.2710,3157.5637,69161.4141,51005.1797,56623.7383,42180.4883,3204.9270,3373.8840,2952.7324,30047.2031,36969.9844,68096.5781,330.367188
-1240.3206,357.5385,3148.8242,3605.1350,41269.0078,45317.7148,56598.9063,46511.8789,-1256.9727,3639.6238,-61.1767,3767.7441,69811.2891,51733.7148,56681.2500,43087.5469,-390.1050,3287.3604,3673.1067,29623.6602,37151.2813,68277.7188,330.371185
-996.0831,-382.2595,3213.8455,3515.2810,41314.3359,45330.2539,56626.8242,46613.0195,-1216.7618,3613.0476,409.5287,3605.0681,69933.3281,51526.6719,56732.8594,42869.0352,200.6069,3305.1748,3683.5449,29629.9414,37145.4922,68270.4531,330.375183
4463.7773,2958.9463,3449.9246,552.4457,41417.8047,43465.0000,56525.4805,44762.4531,4900.1504,334.6280,3458.4182,2224.8701,69278.8906,50609.6680,56630.9375,41766.6680,3555.9165,3408.5068,3060.1995,30147.9199,36961.1992,68097.5625,330.379181
5984.7017,3660.7239,3448.7847,-2285.5999,41446.3672,42482.5977,56444.6563,43676.9609,7954.6504,-2494.0522,3939.1147,1689.8812,68833.6250,50431.4805,56656.2383,41473.5273,3980.8008,3419.8169,1857.0499,30324.4102,36864.7773,67993.8047,330.383179
3875.3677,3214.7173,3371.0901,975.4748,41402.0469,43525.0586,56499.2617,44673.8047,4868.2993,498.8909,3259.9124,3130.8535,69166.9531,51015.1055,56624.6328,42191.1523,3208.3916,3369.8831,2839.5879,30040.4980,36966.4766,68094.3203,330.387177
-1258.3137,341.0205,3142.1411,3606.8562,41262.3242,45322.6523,56594.5273,46517.1289,-1281.6937,3646.4412,-47.2069,3759.3174,69811.1094,51734.8984,56677.3828,43084.2813,-378.5715,3287.5840,3672.1233,29622.6992,37152.2852,68280.3750,330.391174
-896.4614,-449.6947,3218.9863,3494.8740,41317.8672,45324.1719,56629.5508,46606.6484,-1164.6599,3604.0623,368.3791,3595.7920,69933.9766,51525.8203,56735.4102,42863.8711,26.8668,3310.2710,3685.3779,29637.6074,37148.0625,68274.6563,330.395172
-896.4614,-449.6947,3218.9863,3494.8740,41317.8672,45324.1719,56629.5508,46606.6484,-1164.6599,3604.0623,368.3791,3595.7920,69933.9766,51525.8203,56735.4102,42863.8711,26.8668,3310.2710,3685.3779,29637.6074,37148.0625,68274.6563,330.399170
4533.8726,2979.9568,3457.0325,507.6751,41423.7930,43458.0703,56530.1523,44754.3164,4960.2095,359.3266,3450.0139,2205.7817,69278.8516,50610.9414,56635.6758,41765.6406,3528.5356,3411.7253,3079.0420,30153.5977,36961.8047,68098.6094,330.403168
5977.1914,3655.2700,3444.7166,-2230.2346,41441.4961,42479.6914,56440.8555,43673.2070,7949.5986,-2479.9260,3934.0410,1680.2477,68830.7422,50431.9258,56652.3711,41471.3359,3980.4656,3422.1860,2001.7775,30324.7227,36867.2344,67994.9844,330.407166
3837.2581,3194.6230,3369.7712,993.3562,41401.1523,43540.0586,56501.1172,44688.7813,4819.1255,439.3235,3236.8455,3146.3208,69173.5938,51024.6484,56625.2813,42201.4766,3174.3499,3373.3252,2973.8325,30039.7148,36972.1328,68098.4063,330.411163
-1293.1155,311.1139,3146.1196,3591.1653,41266.7969,45337.5625,56600.6484,46533.0000,-1314.7520,3643.2896,-53.1301,3761.3291,69820.4766,51742.8125,56683.1484,43094.9219,-459.2389,3289.2603,3681.6450,29621.3359,37155.8633,68282.2500,330.415161
-927.0162,-394.3295,3214.5383,3477.4172,41311.5664,45306.6484,56623.2695,46590.7773,-1144.6105,3573.2615,487.1115,3570.2664,69925.9297,51513.3047,56728.3906,42851.0859,172.5108,3308.7510,3682.9192,29638.1445,37146.6328,68271.3906,330.419159
4528.4409,2993.6584,3455.9595,387.2440,41421.3555,43440.3672,56527.0469,44736.9688,4995.7041,196.0248,3474.6455,2062.7529,69271.5391,50601.7539,56633.7734,41757.3711,3564.1643,3410.7866,3063.1277,30155.5859,36961.0430,68096.3047,330.423157
5979.8735,3662.8696,3452.4055,-2215.5496,41449.0508,42486.1484,56448.1211,43679.7773,7959.0313,-2514.9512,3942.4675,1615.0476,68837.9141,50438.2969,56660.5313,41482.8477,3982.2761,3424.1306,1926.4073,30326.1523,36871.7500,67998.8984,330.427155
5979.8735,3662.8696,3452.4055,-2215.5496,41449.0508,42486.1484,56448.1211,43679.7773,7959.0313,-2514.9512,3942.4675,1615.0476,68837.9141,50438.2969,56660.5313,41482.8477,3982.2761,3424.1306,1926.4073,30326.1523,36871.7500,67998.8984,330.431152
3801.9199,3197.5288,3367.2454,1103.9080,41398.3789,43552.1250,56500.8945,44701.8789,4773.4609,487.9162,3234.1409,3154.2781,69178.2656,51028.4961,56624.9023,42211.3125,3191.4714,3374.3979,2973.7429,30037.4805,36977.4727,68102.9219,330.435150
-1328.0065,239.5213,3144.1750,3613.8298,41265.0742,45346.6133,56600.6484,46542.6797,-1350.6935,3652.3867,-139.2067,3767.7888,69824.3672,51741.7813,56685.2969,43101.0000,-442.5869,3289.7966,3684.2378,29619.1445,37158.1406,68284.1953,330.439148
-861.3021,-413.7531,3225.1555,3492.4822,41321.1094,45304.9961,56631.0938,46589.8164,-1066.8934,3582.8057,419.6316,3587.2761,69931.2109,51510.3984,56737.2422,42855.2656,96.0678,3312.2156,3683.4780,29643.9102,37147.5039,68273.5547,330.443146
4576.5864,3015.1831,3456.6077,412.6355,41421.9844,43427.6719,56527.0898,44722.8203,5073.0859,181.6079,3462.6204,2146.3486,69266.8047,50593.6406,56634.6016,41751.9609,3549.5911,3414.0947,3049.6497,30162.5391,36960.5313,68098.0313,330.447144
5973.9727,3661.2603,3450.1257,-2269.5959,41446.4141,42486.0820,56446.3320,43677.5195,7955.9019,-2482.1836,3941.1936,1665.0038,68835.1484,50435.7500,56657.9141,41484.3672,3982.8796,3422.4766,1804.0316,30325.4824,36867.9258,67997.5391,330.451141
3777.7576,3189.7056,3372.6099,1104.7797,41403.7891,43573.1836,56508.2930,44722.3984,4727.5947,613.2648,3214.8960,3124.3044,69187.7891,51038.1953,56628.5664,42225.8203,3159.8438,3373.9734,2850.2498,30036.1387,36976.0664,68104.6016,330.455139
-1351.1853,226.2444,3140.2412,3615.3499,41262.1680,45354.2344,56600.3164,46550.3438,-1379.3932,3660.5002,-145.4428,3775.7458,69826.3516,51743.3906,56682.1875,43099.1680,-481.5460,3289.4836,3685.4226,29618.4297,37157.4063,68286.0938,330.459137
-851.6238,-413.9767,3222.5403,3492.2588,41317.5781,45290.3984,56627.6055,46575.1328,-1097.2694,3578.7600,527.6353,3586.6501,69924.2578,51503.4688,56730.8047,42840.8711,240.0130,3311.5002,3678.6052,29645.6992,37143.9492,68270.7188,330.463135
4598.0220,2967.8423,3459.8040,442.8104,41424.1953,43414.8438,56528.4297,44710.6172,5072.2144,219.1812,3495.7681,2199.9258,69262.2188,50594.1094,56634.3789,41747.2227,3582.8503,3411.7925,3072.4482,30162.0684,36956.3711,68092.3281,330.467133
5970.5532,3656.6111,3445.0295,-2191.5884,41440.7578,42480.5625,56441.8203,43673.1602,7948.8833,-2488.9561,3936.9468,1824.9976,68830.8125,50438.9219,56652.6836,41479.9414,3976.4421,3422.7449,2019.8376,30321.9277,36868.3281,67994.7422,330.471130
3699.3923,3152.0205,3363.2446,1162.6930,41393.5977,43578.8164,56500.9375,44728.7656,4652.2251,581.9277,3169.3879,3196.9922,69185.6406,51042.7109,56621.3711,42223.7383,3062.9712,3370.1736,2998.3298,30027.3105,36975.6836,68100.5313,330.475128
-1425.8401,181.4515,3142.0740,3624.8716,41263.3984,45365.5664,56602.0820,46562.9063,-1432.3221,3679.6111,-172.1531,3777.9587,69831.8125,51753.1172,56685.9453,43106.9258,-589.0802,3285.3264,3684.8191,29610.5176,37155.8633,68281.0703,330.479126
-819.1691,-304.7884,3221.1992,3479.2278,41332.0859,45291.1367,56633.4414,46570.9961,-1025.5874,3562.3984,609.4650,3586.2703,69922.0859,51503.5586,56731.5859,42840.8945,339.3889,3318.2505,3687.6802,29646.4355,37141.2656,68266.6719,330.483124
4619.7256,3035.8809,3458.5522,414.2672,41470.3984,43441.9336,56553.0195,44719.2461,5149.0371,164.2630,3516.1082,2179.6973,69266.7344,50602.7383,56645.1953,41761.9961,3631.5103,3431.9092,3063.1724,30168.3281,36955.5000,68092.1250,330.487122
5969.7485,3662.7131,3453.9480,-2225.3621,41502.6953,42536.6211,56479.0781,43709.0820,7972.0400,-2462.6929,3953.2859,1734.0035,68850.3438,50462.3008,56673.8984,41517.3789,4001.2527,3438.1228,2026.4985,30321.6602,36865.8242,67994.1406,330.491119
3694.5420,3165.6997,3364.7869,1258.7161,41448.6484,43641.2422,56533.2813,44772.7773,4650.6602,738.3004,3212.5491,3167.8904,69204.6172,51063.5859,56635.1172,42260.3750,3212.6384,3390.6030,3002.7556,30025.3652,36975.0352,68102.2500,330.495117
-1417.6816,167.1910,3136.8884,3647.0669,41312.3047,45417.4258,56628.1211,46594.8906,-1423.6272,3690.4070,-101.1640,3780.3057,69843.8594,51760.9375,56694.9531,43129.0078,-289.3210,3306.1357,3718.7266,29609.3105,37155.1680,68281.7578,330.499115
-796.4597,-383.7571,3230.8999,3502.8088,41376.9453,45319.3008,56658.3633,46584.9219,-1010.7682,3586.6948,644.3113,3588.7512,69932.1719,51504.5195,56744.7500,42854.9766,461.4070,3331.1028,3703.7510,29648.0449,37137.7109,68263.4297,330.503113
4644.4912,2993.2114,3459.1111,483.7811,41477.1914,43432.0742,56553.2422,44706.0117,5182.4531,223.1375,3537.1411,2218.6118,69260.6563,50591.4727,56644.5938,41754.5117,3656.4995,3431.1492,3140.3530,30168.4395,36950.7422,68087.1875,330.507111
5954.7056,3651.2244,3443.6438,-2168.3875,41495.5664,42529.2227,56469.9141,43699.5820,7959.4561,-2469.6440,3942.6465,1882.1062,68841.9844,50450.1211,56665.0469,41506.7852,3997.8999,3437.3406,2279.0732,30319.5371,36864.7773,67992.4844,330.511108
3629.4539,3132.1721,3369.3242,1234.9115,41455.5547,43661.0039,56538.8008,44791.5742,4579.7383,684.7457,3170.4160,3235.3926,69214.6094,51066.6484,56640.0117,42270.2539,3118.6941,3390.8936,3115.2742,30024.2246,36979.0391,68105.2969,330.515106
-1479.9536,135.8539,3142.9680,3651.1350,41320.8203,45430.1641,56634.5352,46610.3164,-1475.5280,3706.6121,-95.7325,3789.2688,69853.6016,51761.0039,56701.3008,43135.6250,-380.9855,3305.4653,3721.0288,29609.3770,37158.9688,68284.1719,330.519104
-739.5298,-300.2733,3225.4907,3452.5845,41372.0273,45295.5391,56650.4492,46566.3281,-964.5001,3532.0002,701.8224,3566.9360,69922.8906,51484.7383,56735.9453,42836.5820,561.0064,3329.1357,3699.4148,29650.5488,37137.0430,68261.0156,330.523102
5961.9478,3657.5947,3449.0081,-2175.4058,41503.4336,42529.4219,56475.1211,43704.5430,7961.4453,-2478.3838,3949.5083,1821.8013,68846.5859,50451.7305,56669.4492,41515.3477,3994.1895,3435.9102,2141.6995,30318.0391,36865.0430,67991.8594,330.527100
3623.7988,3116.9729,3356.2036,1284.0406,41445.8086,43658.9688,56529.6836,44795.2188,4540.5107,698.0002,3153.0710,3238.6111,69209.9609,51062.5586,56629.6641,42269.4492,3139.5037,3385.5068,3124.1033,30016.2012,36975.9766,68102.6563,330.531097
-1476.7126,24.2293,3138.6094,3648.3411,41318.6523,45431.3281,56631.5391,46616.0586,-1496.4045,3704.9133,-209.9946,3781.9822,69854.1797,51759.6211,56699.7109,43136.5859,-486.6422,3301.2185,3718.0784,29604.2813,37155.8164,68282.9219,330.535095
-723.6154,-313.8408,3234.2527,3446.7729,41380.6328,45287.0469,56654.6758,46560.4492,-945.3893,3532.3130,680.7670,3566.4219,69924.6797,51483.2852,56741.4883,42835.7539,478.9084,3328.9124,3694.8325,29655.1094,37135.0313,68262.2500,330.539093
4706.4951,3065.0051,3457.5688,284.1354,41477.8867,43395.7969,56547.1836,44672.4414,5264.3496,35.6287,3552.6084,2128.0200,69247.1094,50574.4648,56641.3281,41736.0039,3674.9172,3428.2209,3084.5630,30175.4570,36947.1875,68084.5547,330.543091
5952.3364,3653.3926,3445.6777,-2141.7664,41501.6680,42530.8516,56471.3672,43701.3008,7955.4102,-2493.3369,3944.2781,1756.9812,68843.6406,50454.9258,56667.1250,41514.1406,3995.1060,3431.9314,2111.5244,30315.5352,36862.4727,67990.0703,330.547089
3604.3528,3126.4277,3364.0044,1265.9580,41454.9727,43685.8359,56538.4883,44816.9883,4505.6870,690.9818,3151.6406,3234.8337,69222.0313,51079.8594,56636.9258,42285.0938,3148.3997,3387.2502,3110.9380,30017.2285,36981.0273,68107.2344,330.551086
-1485.5863,33.7735,3135.0107,3636.9863,41317.0195,45442.5703,56630.1328,46621.8477,-1507.9156,3696.2185,-201.4339,3777.7576,69855.5703,51764.3594,56697.3438,43134.9531,-399.9621,3301.2407,3719.0842,29603.7441,37158.4102,68284.4688,330.555084
-724.4871,-355.4374,3235.4148,3428.6233,41382.6875,45281.5938,56654.4297,46549.6523,-940.3602,3512.5989,676.8108,3547.2441,69921.1016,51481.3398,56738.9844,42826.6992,548.5789,3329.2029,3692.0833,29658.4395,37135.0547,68261.3125,330.559082
4719.8613,3067.5532,3464.4084,236.1238,41486.1563,43392.0898,56552.6172,44664.4609,5290.1211,-27.0233,3543.9136,2083.4060,69246.3750,50577.7500,56644.8828,41735.3555,3666.7588,3430.6797,3087.7593,30180.3086,36948.0352,68085.2422,330.563080
5945.4297,3649.3022,3444.2473,-2150.2600,41501.5781,42532.8867,56470.3398,43701.1680,7947.7881,-2478.4285,3941.0371,1786.9325,68842.6094,50457.6289,56664.4414,41513.8711,3992.2002,3433.9207,2178.0432,30316.1836,36864.1289,67992.5547,330.567078
5945.4297,3649.3022,3444.2473,-2150.2600,41501.5781,42532.8867,56470.3398,43701.1680,7947.7881,-2478.4285,3941.0371,1786.9325,68842.6094,50457.6289,56664.4414,41513.8711,3992.2002,3433.9207,2178.0432,30316.1836,36864.1289,67992.5547,330.571075
3583.6104,3120.5269,3358.6401,1345.5526,41451.4414,43696.9648,56535.4961,44828.3672,4471.3320,766.4636,3150.9700,3224.1943,69223.7969,51083.0313,56632.3008,42288.1133,3142.1858,3384.5903,3116.4590,30010.5234,36979.3047,68106.3203,330.575073
-1489.0508,45.5752,3139.4365,3658.3323,41323.1680,45453.8594,56635.3828,46636.4219,-1515.8059,3718.7937,-170.9014,3785.7820,69863.3906,51769.5000,56702.1055,43143.0469,-444.3974,3302.2244,3721.8782,29600.8379,37159.4180,68284.7109,330.579071
-643.0150,-251.6136,3235.2808,3430.4785,41382.3516,45263.4648,56651.6328,46536.6445,-861.1233,3500.4395,748.2469,3550.4851,69915.7813,51471.6406,56735.6094,42817.8945,584.6545,3331.4155,3689.5576,29660.8984,37135.7695,68259.7188,330.583069
4770.4209,3092.1626,3465.9954,167.2134,41488.1875,43375.3008,56552.1680,44651.2070,5356.1035,-64.8871,3562.7114,2021.6705,69241.9922,50572.4961,56645.7773,41731.7344,3683.9919,3432.7361,2968.9597,30184.3086,36950.6289,68084.7109,330.587067
5952.6045,3660.5674,3454.2385,-2124.3098,41513.0234,42539.3008,56479.3906,43710.9805,7953.8901,-2488.7327,3952.5483,1792.5428,68851.5547,50466.1680,56674.0078,41528.4883,3992.3342,3436.2900,2053.4099,30318.4199,36869.5156,67995.4375,330.591064
3524.9148,3109.6416,3356.5613,1439.0723,41451.4883,43706.1094,56535.8984,44841.8906,4397.1689,800.4830,3125.4219,3257.0513,69228.5781,51087.7930,56632.2344,42297.9922,3112.0557,3384.9480,3135.6592,30009.8750,36983.9336,68110.2109,330.595062
-1553.2897,0.9611,3135.0779,3662.6909,41321.1992,45457.4336,56633.2148,46642.5664,-1578.6366,3722.0347,-290.1703,3789.4922,69864.8438,51767.6875,56701.4102,43144.7891,-478.2379,3299.9443,3720.1794,29598.2676,37158.1406,68285.1172,330.599060
-653.3415,-233.7992,3242.9697,3419.0569,41390.5781,45255.5547,56656.1484,46530.1406,-883.3185,3499.9031,712.4842,3559.1575,69916.2734,51467.6172,56739.5195,42817.2031,604.9723,3330.6558,3683.0757,29663.8477,37129.8672,68257.5547,330.603058
4776.3662,3094.2637,3459.8936,144.0123,41483.6055,43355.0742,56545.4648,44630.3086,5363.8374,-94.7937,3563.8513,2126.9473,69229.8984,50561.6328,56638.8281,41719.3945,3690.8093,3428.3328,3064.9382,30185.4707,36942.2461,68080.0781,330.607056
5939.8862,3652.9231,3446.2813,-2214.4097,41506.5156,42536.0156,56472.6172,43704.5664,7941.0605,-2464.1904,3942.2441,1892.2316,68844.3125,50462.7930,56666.3203,41523.9063,3990.0544,3431.5068,2094.2466,30314.2617,36863.0781,67991.1016,330.611053
3517.8962,3116.3472,3363.0210,1398.5933,41459.0664,43731.3672,56543.7852,44863.0547,4370.1011,915.8180,3130.8535,3256.6267,69239.0625,51101.7617,56637.5078,42313.9961,3114.0449,3383.4504,3037.1772,30006.3672,36983.3750,68110.5938,330.615051
-1540.8398,22.2176,3136.8438,3679.3877,41324.4844,45471.8516,56636.8164,46653.0508,-1575.6862,3739.2903,-206.4631,3796.3318,69870.6094,51774.8203,56703.5586,43148.7227,-435.9261,3302.2690,3722.9958,29600.5039,37162.9922,68289.4531,330.619049
-562.7275,-184.7819,3242.7686,3402.9412,41390.1328,45247.1484,56654.1836,46517.4219,-798.6949,3496.3938,819.6608,3562.1304,69911.6953,51462.6563,56736.4805,42806.1133,694.6699,3332.7344,3681.8462,29669.3906,37133.1758,68259.2266,330.623047
4834.0117,3121.3315,3473.4163,136.4798,41497.2188,43357.4414,56555.6797,44627.6484,5438.0449,-24.4975,3590.0923,2154.9988,69235.1484,50569.6563,56649.9570,41724.7813,3708.5789,3432.6467,2969.6750,30191.0586,36946.4727,68082.5625,330.627045
5938.8359,3656.4324,3450.9526,-2141.5430,41512.1719,42543.7266,56476.4414,43709.3711,7942.6699,-2451.7627,3946.2451,1961.2761,68848.9141,50471.8672,56670.7891,41529.8516,3988.9817,3434.6360,2153.8140,30315.4023,36868.3516,67995.2969,330.631042
3448.2483,3075.9800,3354.5273,1454.3833,41451.8672,43739.4102,56537.6641,44870.8125,4296.6084,878.1106,3077.8574,3281.5266,69238.7500,51105.2266,56631.5859,42314.3750,3047.1685,3382.2434,3145.7397,30001.9414,36985.8555,68112.3594,330.635040
-1600.0719,-20.7201,3140.6436,3675.9678,41329.2695,45482.4023,56640.2109,46665.6133,-1627.8551,3746.8452,-283.1743,3794.5215,69877.7422,51780.3164,56708.5625,43155.4063,-554.3232,3300.4360,3724.4934,29595.2285,37161.6719,68287.2109,330.639038
-524.4613,-93.1174,3249.3623,3406.6963,41395.6992,45235.6836,56654.6055,46509.0625,-744.3801,3482.5359,886.5596,3540.2927,69912.1406,51452.0156,56739.9219,42793.8008,733.7631,3333.3154,3679.4993,29668.3184,37129.5547,68254.7188,330.643036
4848.7861,3132.0156,3464.4531,133.0599,41488.8828,43331.6055,56544.0781,44604.5820,5484.3130,-104.3156,3600.1060,2074.9124,69222.9688,50549.8086,56642.2695,41699.4336,3719.7102,3429.6963,3022.9392,30189.6953,36941.7109,68077.0625,330.647034
5935.3042,3656.2087,3452.1821,-2182.5583,41515.8828,42544.1758,56478.1172,43712.8359,7942.1558,-2445.6160,3946.6921,1860.1121,68851.5078,50473.8125,56673.1133,41532.7148,3986.3887,3433.2949,2064.1165,30313.5020,36867.1016,67993.8047,330.651031
3429.5173,3091.4473,3360.2942,1450.4270,41459.3555,43757.0703,56544.7500,44891.7109,4258.3872,993.7809,3086.4629,3267.4897,69249.9297,51114.6172,56637.7109,42326.8711,3063.4182,3383.6963,3077.7681,30001.4941,36989.3633,68116.1797,330.655029
-1599.6472,-21.9494,3133.6250,3681.2651,41323.9727,45483.8984,56635.5391,46668.9414,-1638.8745,3751.1367,-249.0208,3787.0112,69876.7813,51776.0273,56704.6758,43150.1523,-509.2398,3299.7878,3725.4099,29595.6758,37164.2461,68290.4766,330.659027
-403.1360,-112.5634,3251.4858,3366.9326,41398.3359,45224.3516,56655.9258,46498.6211,-697.7544,3472.7234,813.1118,3539.2644,69908.4063,51449.3555,56739.0742,42792.7031,619.9927,3333.0474,3675.8337,29675.5391,37129.9570,68256.3281,330.663025
5923.9272,3648.8328,3444.8284,-2102.5391,41509.5352,42541.4922,56471.7031,43707.1133,7928.8115,-2434.1943,3938.8020,1913.0857,68845.6953,50468.7617,56666.6328,41528.3789,3984.5337,3432.0208,2183.1394,30311.7129,36866.4063,67992.9063,330.667023
3386.0210,3061.3618,3352.3369,1483.3287,41453.6328,43768.8047,56540.6133,44900.9883,4192.7178,935.4205,3046.6992,3289.4167,69249.3438,51114.5039,56631.4727,42331.2539,3016.4573,3378.7344,3155.0828,29994.9004,36986.9492,68113.2266,330.671021
-1632.5490,-64.6189,3134.6309,3674.9172,41327.1680,45495.8125,56638.3555,46679.1797,-1673.3856,3749.9072,-282.2578,3791.4817,69881.7891,51776.2266,56706.6406,43155.2266,-582.8888,3296.5916,3725.4546,29592.1660,37163.0820,68289.0703,330.675018
-450.8570,-80.5557,3249.8989,3365.1445,41396.9727,45210.2227,56652.6406,46483.5586,-687.4503,3432.5125,904.9327,3514.9458,69902.7109,51436.8398,56734.7813,42779.9414,763.9826,3334.2766,3674.4702,29680.6797,37130.6719,68257.3750,330.679016
4911.3711,3176.9875,3469.5046,-12.6734,41496.4805,43309.7227,56547.8086,44580.5742,5558.5435,-253.4017,3610.8347,1989.0817,69215.3672,50545.0039,56644.9727,41698.1602,3731.9365,3431.2832,3023.4309,30200.5137,36941.6445,68078.5156,330.683014
5925.6484,3654.4207,3449.5000,-2070.9338,41516.1719,42546.4531,56476.6211,43713.2383,7929.3481,-2460.3906,3944.4792,1879.3123,68850.7266,50473.2539,56671.1680,41537.2734,3983.9302,3430.9480,2114.9668,30310.6855,36866.4727,67993.9141,330.687012
3363.8032,3047.6826,3350.3699,1548.3500,41453.3438,43780.5391,56541.0391,44916.2305,4164.9346,963.5837,3025.4426,3299.2290,69255.3359,51120.5820,56631.8086,42339.4336,3012.9255,3380.0530,3161.1401,29992.9785,36990.8164,68118.1250,330.691010
-1648.6199,-165.7158,3135.1226,3682.1370,41329.2461,45501.6250,56640.1016,46689.4180,-1683.9580,3756.3223,-379.2420,3791.5710,69886.9297,51780.0273,56709.7031,43159.9414,-639.1034,3298.5586,3727.6450,29591.5410,37165.4727,68292.2656,330.695007
-403.1808,-73.2690,3253.9668,3359.9587,41400.7695,45195.6484,56653.1328,46473.6992,-599.6526,3435.9324,852.3837,3513.4258,69899.4453,51432.6367,56734.9375,42775.4023,673.3463,3332.1309,3667.8987,29681.0586,37126.2031,68253.2188,330.699005
4935.7793,3196.3218,3463.7603,-29.7949,41491.2969,43288.7578,56540.8828,44561.5313,5615.5181,-255.8604,3593.2886,1997.4860,69203.9453,50538.8125,56638.5156,41687.2539,3712.0659,3429.0928,3007.5613,30201.4082,36938.2461,68074.7188,330.703003
5914.8975,3650.1067,3447.5552,-2140.7158,41514.0273,42545.9180,56473.8945,43712.1445,7919.3569,-2418.8386,3939.4949,1804.9257,68848.2422,50477.8594,56668.3516,41538.5234,3980.2644,3429.8303,2034.2098,30308.8301,36866.8086,67993.3125,330.707001
3309.0415,3044.5535,3353.7673,1542.4044,41458.4180,43800.5898,56546.5352,44935.5195,4099.9580,1065.5970,3012.9927,3256.6267,69264.2969,51136.5664,56635.9648,42354.4766,2987.0422,3379.5166,3106.3113,29990.2500,36994.2578,68120.0000,330.710999
-1683.8239,-163.1454,3129.0430,3678.0017,41325.4453,45508.2383,56637.0391,46694.0898,-1717.4186,3756.3447,-387.7357,3788.3748,69886.9531,51784.1406,56706.6641,43159.3164,-641.9644,3295.8315,3729.3660,29588.1875,37166.3438,68290.9922,330.714996
-369.2061,-101.9910,3253.2292,3360.0930,41400.6836,45186.1055,56651.2305,46460.4453,-615.0753,3436.5806,937.7897,3504.1499,69894.4375,51429.4414,56732.3242,42767.4023,799.8571,3331.6392,3665.3730,29683.3164,37125.0391,68250.3359,330.718994
4962.0649,3151.9758,3469.5493,-14.3498,41498.8750,43285.5586,56545.8438,44553.8633,5632.2373,-228.1889,3620.6919,1999.8776,69203.7734,50542.8125,56643.8555,41689.9141,3738.4856,3429.0256,3015.9431,30203.5313,36936.9727,68072.4844,330.722992
5904.7495,3644.4741,3442.5039,-2069.5032,41511.1211,42548.3086,56470.6523,43711.0469,7909.4102,-2430.4839,3933.6387,1892.5444,68845.6250,50478.6406,56664.6641,41538.4570,3975.5034,3428.2656,2142.6382,30305.8789,36865.1992,67991.9453,330.726990
3216.4607,2995.2678,3346.8159,1612.7454,41452.6484,43813.4414,56542.2227,44945.2891,4010.5063,1058.8691,2951.7712,3299.5198,69264.2734,51137.4609,56630.8906,42357.5391,2871.2156,3374.2864,3165.2974,29983.0977,36990.8633,68118.1016,330.730988
-1747.9064,-198.7070,3133.4238,3696.6655,41330.6328,45521.6953,56641.2422,46705.8906,-1767.1959,3776.2825,-396.0505,3799.6624,69893.2109,51786.4883,56711.7813,43166.8047,-733.3384,3293.0154,3726.3262,29584.0527,37163.1250,68289.6719,330.734985
-329.1965,-2.2128,3251.6423,3331.9521,41398.2461,45169.5430,56646.3594,46444.4180,-569.5671,3389.1055,1000.1958,3505.2676,69886.8828,51415.2930,56728.0781,42754.5938,871.9415,3330.3650,3659.0698,29685.1504,37120.9492,68247.8984,330.738983
4984.5952,3197.6182,3466.5767,-127.8967,41495.9453,43267.1211,56541.0156,44535.8711,5674.9512,-369.0497,3626.2798,1949.1615,69195.0938,50531.1250,56641.1719,41679.0742,3750.5779,3427.9976,2864.5771,30207.1074,36934.6484,68070.9141,330.742981
5908.4150,3653.7949,3451.0198,-2109.9375,41520.3984,42555.2852,56477.9844,43720.0117,7912.4277,-2402.7231,3942.8923,1861.4309,68852.7344,50483.0664,56672.3750,41549.0977,3976.7776,3427.5952,1895.6737,30306.1250,36865.6914,67992.3516,330.746979
3242.9922,3029.2424,3346.1230,1672.9163,41452.5820,43823.1875,56543.1602,44960.1094,3992.3342,1167.9680,2994.4185,3297.0610,69269.4609,51139.2031,56630.2422,42363.3047,2969.0269,3375.5828,3116.3025,29982.4941,36994.3047,68121.1406,330.751953
-1719.0280,-179.4174,3129.6465,3697.7383,41327.9727,45521.2031,56639.1406,46710.6523,-1769.4087,3773.5332,-417.3294,3800.1541,69894.2813,51782.0820,56709.5039,43163.4063,-680.2977,3294.6470,3729.4109,29584.7227,37166.0313,68292.0391,330.755951
-289.7680,-3.5986,3264.1592,3362.6858,41410.0938,45162.2109,56655.0781,46441.6250,-540.6887,3438.9500,971.2056,3519.6396,69891.1563,51414.2852,56734.9609,42755.6875,799.2983,3334.3438,3657.8853,29690.6699,37121.3945,68247.8047,330.759949
5013.6748,3194.2654,3466.1519,-17.4120,41495.8555,43250.3125,56538.8906,44521.4102,5709.5293,-235.6768,3642.7979,2083.6965,69188.2344,50525.3789,56638.0234,41671.1172,3757.5740,3427.9529,2978.7275,30208.2695,36932.4805,68067.9688,330.763947
5894.6240,3644.8765,3442.1238,-2090.7373,41512.2188,42549.4727,56469.9609,43713.4844,7896.7144,-2407.9980,3932.5881,2027.5938,68845.6953,50480.8750,56663.3008,41542.3242,3971.5024,3426.8352,2160.4077,30302.7051,36865.0195,67990.6094,330.767944
3151.9983,2986.7964,3348.0901,1597.7920,41455.8477,43843.4609,56546.9180,44977.8789,3913.0081,1127.7349,2925.1279,3337.6965,69276.7500,51153.3047,56632.2344,42376.4922,2831.9436,3372.0957,3177.2556,29975.6777,36993.9922,68119.9766,330.771942
-1776.3378,-213.7274,3128.9983,3695.5479,41328.2852,45532.1328,56639.2969,46718.6992,-1805.0598,3781.8479,-419.7881,3798.4778,69897.2109,51788.2969,56709.4141,43165.0391,-772.3868,3290.6460,3728.0696,29579.5371,37164.8047,68290.3203,330.775940
-221.8858,61.0426,3258.1467,3300.0784,41403.4102,45146.8125,56646.8047,46421.9570,-493.7500,3363.6692,1039.4231,3483.4299,69881.0938,51405.7461,56726.7813,42737.2266,892.6616,3334.0085,3655.1582,29694.0684,37120.6367,68247.5625,330.779938
5048.4316,3229.4023,3471.6282,-169.7391,41501.8906,43247.6719,56542.2461,44512.2461,5754.4116,-392.9660,3647.4470,1920.8641,69187.2266,50530.0039,56643.0273,41669.3711,3763.6313,3428.6233,2854.0271,30213.0527,36932.0781,68069.1719,330.783936
5894.6240,3649.4810,3449.4551,-2076.3652,41521.2930,42564.3359,56477.3359,43723.2305,7899.3521,-2415.7988,3938.0642,1910.2694,68853.5859,50495.6719,56671.5938,41554.0391,3973.1790,3428.2656,2011.8357,30304.8965,36867.1680,67994.8281,330.787933
3144.9573,2981.9014,3344.1785,1678.6830,41453.9219,43859.7305,56546.5820,44991.7344,3886.8342,1157.6638,2925.6421,3331.1475,69281.9766,51164.2578,56632.7031,42383.8672,2895.7800,3376.6333,3187.4705,29978.4277,37000.4961,68128.0938,330.791931
-1782.8645,-288.8963,3134.5637,3706.9473,41335.1680,45547.5117,56645.8242,46733.0938,-1820.1696,3794.4990,-494.7335,3799.6399,69906.8438,51798.0195,56718.2422,43175.0508,-835.3293,3294.9375,3734.1941,29583.1133,37170.1914,68296.0625,330.795929
-218.5107,66.2953,3268.0708,3309.8237,41412.9766,45141.7148,56653.1328,46417.8438,-459.9765,3372.4534,1013.4951,3490.6494,69884.0938,51405.1875,56734.0664,42738.6797,804.1934,3336.1765,3654.2419,29698.7168,37120.9727,68247.1406,330.799927
5058.5796,3243.6626,3466.1519,-149.2426,41497.3320,43226.9297,56536.2109,44493.6719,5791.4707,-414.8707,3651.8279,1987.6958,69177.7109,50519.5234,56638.6016,41658.4883,3768.2581,3429.7856,2949.0667,30216.4277,36932.5898,68067.8750,330.803925
5885.7280,3644.3623,3446.7507,-1997.3071,41519.7031,42560.7578,56474.7891,43722.7148,7890.8584,-2410.6133,3934.9797,1907.2296,68852.0391,50490.6680,56669.3164,41554.1953,3967.8145,3426.7681,2074.1748,30301.6563,36867.0781,67992.8438,330.807922
3126.2043,2982.4827,3344.3350,1682.0134,41454.8867,43870.8398,56547.7227,45007.3359,3849.5962,1165.9563,2926.6033,3335.9753,69287.3672,51162.0469,56632.5898,42391.0000,2886.3030,3372.9229,3196.9028,29971.1406,36999.0195,68125.7266,330.811920
3126.2043,2982.4827,3344.3350,1682.0134,41454.8867,43870.8398,56547.7227,45007.3359,3849.5962,1165.9563,2926.6033,3335.9753,69287.3672,51162.0469,56632.5898,42391.0000,2886.3030,3372.9229,3196.9028,29971.1406,36999.0195,68125.7266,330.815918
-1778.8635,-273.2054,3125.5115,3695.1455,41327.1211,45541.4336,56638.2461,46731.7500,-1821.2201,3778.2939,-438.5412,3793.3367,69902.4609,51784.0273,56710.3516,43166.6484,-751.2645,3291.8308,3732.9646,29578.1738,37167.8438,68293.8516,330.819916
-206.1278,44.4353,3264.5615,3277.9502,41409.0195,45119.6563,56646.8945,46399.5391,-450.8123,3334.9026,1069.9556,3466.0850,69874.8594,51384.9141,56726.8906,42723.3008,909.2242,3332.1980,3647.5586,29698.5820,37115.7852,68242.8906,330.823914
5072.5718,3238.8794,3468.5212,-218.8459,41500.5039,43214.1016,56536.7891,44482.2266,5813.8896,-497.3710,3649.7268,1946.7921,69173.7031,50509.3320,56639.3398,41654.4648,3763.0054,3427.6624,2929.5537,30216.1152,36927.8750,68063.7656,330.827911
5874.8877,3639.3108,3441.3638,-2014.3838,41515.5234,42558.5469,56470.4961,43720.4570,7877.7378,-2402.6782,3928.8555,1944.4005,68848.9141,50485.2813,56664.4883,41553.0313,3964.8193,3425.5388,2081.7520,30298.8398,36865.5352,67991.5703,330.831909
3123.8127,2962.4106,3338.2554,1745.4476,41451.1758,43883.3789,56545.3750,45019.3164,3810.8828,1211.7327,2925.5303,3336.2659,69289.7578,51165.5547,56629.2148,42398.8438,2890.5276,3369.3689,3192.1643,29964.7031,36997.7461,68124.5391,330.835907
-1762.7479,-323.5638,3127.2102,3708.2883,41330.8320,45552.4297,56641.3281,46742.6602,-1829.9819,3794.2756,-445.5597,3796.9578,69908.2109,51787.5391,56713.6172,43172.5938,-773.0574,3289.8638,3731.7129,29574.1289,37166.4805,68292.3750,330.839905
-129.6178,115.3797,3262.5723,3272.5859,41407.0078,45104.1406,56642.8516,46383.5352,-371.8660,3325.1794,1111.4628,3453.6572,69867.7969,51376.3086,56722.3984,42711.0547,965.8859,3332.1755,3641.5237,29701.3105,37113.6836,68241.0781,330.843903
5869.5229,3639.1321,3443.1296,-1997.0389,41517.3789,42563.8672,56471.0781,43723.8555,7871.1216,-2393.9165,3928.9670,1865.3424,68849.7188,50492.6563,56664.9570,41557.5234,3960.8408,3421.1802,2008.6842,30293.1836,36861.1758,67987.8984,330.847900
3034.8975,2938.0027,3332.8909,1789.0336,41446.3906,43894.5117,56541.6172,45029.5547,3733.2776,1247.3615,2859.0562,3320.5527,69290.5391,51171.4570,56625.0352,42399.6914,2826.3333,3365.9714,3196.9922,29959.0703,36996.5820,68123.7813,330.851898
-1835.4358,-367.1945,3123.7903,3704.2651,41328.5078,45558.0820,56639.0039,46746.7930,-1878.3511,3795.9519,-612.5942,3789.3806,69908.2969,51792.4766,56712.2734,43171.7891,-843.1972,3287.7402,3730.0366,29569.8809,37164.7578,68290.4766,330.855896
5119.4883,3256.0903,3467.5825,-322.1110,41501.5313,43191.2578,56534.3984,44455.2500,5888.5894,-539.8170,3664.0095,1897.8418,69162.7578,50511.9883,56638.4922,41645.3203,3786.5417,3430.1655,2923.6304,30225.4141,36929.3047,68065.4844,330.859894
5866.8188,3642.2837,3446.7729,-2098.9404,41522.7891,42573.8594,56476.0156,43731.1875,7868.2163,-2371.0505,3929.1907,1930.5201,68855.5313,50504.7266,56669.8945,41566.4883,3962.9641,3426.2988,2044.0446,30298.6602,36868.5977,67994.6563,330.863892
3032.0811,2965.9199,3341.9434,1765.2065,41456.8984,43920.8633,56552.5273,45054.9219,3687.5906,1362.1599,2919.3613,3330.9910,69305.1328,51189.4258,56634.7148,42420.2109,2857.6929,3368.6982,3132.7087,29959.4492,37001.9492,68128.5391,330.867889
-1808.6808,-301.9944,3123.0750,3716.2231,41329.0898,45564.4336,56639.8984,46754.1016,-1880.9216,3804.8032,-441.9387,3795.9744,69912.0313,51793.4609,56713.1016,43173.1523,-757.8359,3289.3943,3735.0435,29572.0273,37168.8945,68293.9844,330.871887
5162.5601,3282.8677,3473.7515,-335.9467,41508.1484,43183.3438,56538.0430,44447.9180,5948.0894,-484.9211,3682.0027,1985.3713,69161.9688,50505.7109,56643.1406,41643.9141,3796.0859,3429.2268,2858.3633,30226.2402,36926.0195,68062.1563,330.875885
5855.2852,3635.3547,3440.6262,-1993.3285,41517.4492,42568.2930,56470.2070,43728.5273,7852.8159,-2348.2742,3923.5803,2066.9329,68850.4766,50495.6953,56663.2578,41562.4180,3956.5940,3423.1248,2123.2368,30293.2949,36865.0000,67991.0781,330.879883
2940.3496,2881.2292,3331.5945,1841.7614,41447.8008,43924.7305,56545.1953,45061.8750,3616.9814,1335.6061,2785.7202,3362.5964,69302.5234,51182.5664,56626.4219,42418.6250,2699.5542,3365.2114,3211.1855,29952.5664,37000.4297,68127.0156,330.883881
-1879.1334,-390.3956,3130.4287,3726.1250,41337.6953,45577.0820,56647.4531,46768.9688,-1923.0546,3821.3435,-603.8771,3809.6982,69921.5703,51795.6055,56721.2383,43182.8516,-955.5817,3290.1543,3735.9150,29569.5020,37168.9375,68294.2813,330.887878
7.8455,309.7057,3273.6587,3251.0388,41416.7070,45069.3633,56644.9727,46351.0117,-244.9304,3290.1990,1226.5295,3462.9333,69859.6406,51357.2891,56723.5391,42689.9961,1110.3899,3337.4060,3635.1982,29713.0449,37111.1367,68238.0625,330.891876
5180.2627,3297.2397,3466.5542,-321.8651,41501.6680,43163.1406,56530.4648,44428.0234,5981.0137,-592.2318,3684.4839,1947.1945,69151.0859,50493.5508,56636.8594,41629.6523,3803.8420,3429.1821,2842.7170,30229.3926,36925.3945,68061.2813,330.895874
5855.4194,3644.9211,3447.6448,-2015.3450,41527.2617,42581.7266,56478.7422,43740.3711,7853.7100,-2351.4929,3930.4199,2024.1963,68859.7109,50507.4297,56672.2422,41576.0547,3957.2422,3424.9353,1970.1050,30294.9941,36868.9570,67994.4766,330.899872
2917.9307,2929.7771,3333.6062,1855.5077,41451.5547,43945.1602,56549.9570,45081.5000,3584.3032,1430.7798,2824.5674,3375.4485,69311.5469,51196.6484,56630.5547,42432.9766,2779.6404,3366.4185,3158.7261,29951.4043,37004.7188,68130.9297,330.903870
-1867.7340,-360.3101,3118.5823,3722.3699,41327.1875,45575.3828,56638.2461,46766.1289,-1916.9303,3811.3745,-551.7081,3798.4106,69915.8281,51792.4336,56712.9883,43173.9336,-858.6199,3286.8909,3735.3564,29566.8203,37168.7383,68293.7656,330.907867
115.7820,249.1549,3277.1233,3192.2761,41420.5508,45062.0781,56646.3359,46341.0859,-167.5487,3281.0796,1143.3141,3450.4163,69857.3594,51357.3320,56725.1719,42685.2148,965.3494,3335.7295,3631.5103,29715.7500,37109.2813,68236.2266,330.911865
5225.5918,3313.6685,3471.3376,-400.6550,41507.8594,43159.1602,56534.2891,44420.3594,6035.2168,-554.1444,3681.0640,1956.4705,69150.0156,50499.8320,56641.5977,41630.6602,3791.3921,3429.4727,2879.7764,30232.2090,36924.2969,68060.3438,330.915863
5841.8740,3634.5947,3440.0005,-1955.7999,41519.4805,42580.5195,56471.4570,43736.1055,7838.6001,-2335.0867,3920.5852,2051.7336,68853.6953,50508.6367,56664.9766,41570.3086,3954.2471,3423.7061,2133.3398,30292.7148,36867.7695,67993.8281,330.919861
2874.3000,2886.2583,3329.4263,1860.4250,41449.3633,43961.0508,56549.0156,45095.2227,3527.3958,1389.2056,2773.5386,3381.9082,69315.0156,51204.9180,56628.9453,42438.1602,2708.7632,3363.6692,3232.3750,29946.2188,37003.8242,68130.7500,330.923859
-1894.0868,-410.8027,3120.7727,3714.9939,41330.8984,45585.5781,56641.4180,46775.7617,-1941.2489,3814.9509,-586.5544,3798.4553,69920.9453,51798.7344,56716.2969,43178.0703,-956.6546,3285.6169,3735.8928,29564.4063,37167.9102,68293.3359,330.927856
92.7821,295.0430,3272.2058,3189.7502,41414.8984,45042.1836,56639.2305,46322.1094,-160.6643,3236.4878,1242.7123,3419.6604,69847.4766,51346.9609,56717.9063,42669.7461,1101.2257,3335.9753,3628.1128,29718.9453,37107.4922,68234.6016,330.931854
5226.1953,3319.5244,3468.0071,-462.4129,41504.8203,43143.7617,56529.7930,44405.3594,6056.3838,-694.6251,3692.0386,1848.5563,69142.1016,50493.5938,56638.4258,41622.5469,3807.9102,3427.8857,2868.3770,30232.7676,36921.6367,68057.2344,330.935852
5838.4097,3637.4333,3442.9509,-1888.8341,41524.0859,42586.3516,56475.0781,43743.4570,7833.8838,-2343.3792,3923.4463,2033.4946,68857.9219,50513.2422,56668.5117,41578.2891,3951.1401,3423.6836,2101.6675,30291.2617,36869.0234,67994.2266,330.939850
2852.6189,2874.2778,3323.8608,1925.1780,41444.8945,43969.6367,56546.4023,45106.8906,3497.0645,1409.7915,2760.3062,3391.7654,69317.0938,51206.3008,56625.8867,42443.1016,2728.0081,3364.2280,3247.0601,29943.6250,37007.2695,68133.2109,330.943848
-1905.8438,-487.9609,3120.5269,3722.7053,41331.3477,45589.9141,56641.8906,46783.1367,-1947.6639,3817.6555,-641.2939,3798.7458,69924.3672,51795.6953,56718.0625,43180.0391,-942.4389,3286.6897,3738.1279,29563.4004,37169.7891,68294.2813,330.947845
103.4215,317.5959,3280.8784,3194.9358,41422.6758,45033.1758,56644.2148,46315.7852,-82.7909,3232.5315,1219.8241,3422.6555,69848.9531,51339.2070,56722.8711,42667.4219,1064.4570,3337.6072,3626.9280,29724.1094,37107.9180,68234.7344,330.951843
5236.8125,3336.7354,3465.3025,-481.0542,41502.4063,43128.3594,56526.0391,44390.5195,6103.0542,-727.7504,3683.8357,1819.0520,69134.8594,50482.1523,56635.9648,41614.0508,3799.6624,3428.3774,2825.9534,30235.7168,36920.8320,68056.7266,330.955841
5829.9160,3634.5276,3442.6379,-1961.9690,41523.1250,42589.4805,56474.0273,43745.9844,7822.3501,-2292.0371,3920.1829,1914.3821,68858.1016,50509.7539,56667.2148,41580.2109,3948.4578,3422.5662,1949.6309,30289.4297,36868.5078,67994.6719,330.959839
2836.7715,2872.4001,3328.5994,1938.8796,41450.1680,43989.7500,56552.3477,45126.8945,3464.0957,1501.5231,2746.8728,3353.7004,69327.0156,51211.6445,56630.6680,42455.3281,2702.4600,3363.8032,3191.1809,29941.7930,37009.0352,68136.4297,330.963837
-1902.0439,-477.9697,3117.9341,3723.4429,41329.4023,45593.6250,56640.5039,46786.6484,-1951.6873,3815.3308,-628.4640,3797.2708,69925.1719,51792.0977,56716.5000,43177.8477,-938.2144,3287.2263,3739.5137,29562.9531,37170.3242,68295.7969,330.967834
171.1026,286.1917,3280.3196,3190.6890,41421.1992,45018.7813,56641.0156,46300.2500,-62.8307,3229.8940,1304.9618,3408.3279,69842.0703,51328.5234,56719.1797,42655.6445,1167.6104,3337.9199,3620.2449,29725.8301,37104.1836,68231.4453,330.971832
5265.3555,3304.4370,3467.2249,-486.8433,41505.2227,43119.2617,56526.9102,44379.8555,6130.9043,-712.7077,3701.9851,1827.4785,69130.9453,50480.7656,56637.2188,41611.9297,3817.5884,3426.4106,2826.6016,30235.3145,36916.5195,68052.4063,330.975830
5815.1636,3627.5540,3435.4854,-1931.5707,41517.7617,42588.9219,56468.8398,43744.2188,7806.3467,-2312.2656,3912.3599,1999.5422,68854.1250,50511.4102,56661.8711,41579.5859,3943.4512,3419.4592,2069.2798,30284.8242,36865.9141,67991.9063,330.979828
2706.2373,2813.5034,3321.2231,1966.5288,41444.3359,44000.9258,56548.2813,45137.4453,3342.2114,1506.5746,2662.4055,3374.6216,69327.4609,51218.5273,56626.2656,42460.3555,2556.3914,3358.1707,3231.3245,29933.7461,37006.5742,68133.6563,330.983826
-1971.2227,-510.5362,3119.9905,3726.3040,41323.3008,45593.9570,56637.8438,46790.9844,-2009.5111,3832.2065,-679.9401,3795.7732,69927.5625,51798.1328,56717.6836,43179.5000,-1070.3579,3278.6880,3731.1318,29558.2148,37168.3359,68293.6719,330.987823
205.5243,367.7085,3273.8152,3120.3704,41370.7734,44959.8828,56607.7578,46256.9570,-69.6480,3176.5403,1274.4070,3380.5447,69820.3203,51312.8516,56700.7617,42621.2227,1069.2180,3314.2495,3584.5269,29724.9355,37100.1406,68227.6250,330.991821
205.5243,367.7085,3273.8152,3120.3704,41370.7734,44959.8828,56607.7578,46256.9570,-69.6480,3176.5403,1274.4070,3380.5447,69820.3203,51312.8516,56700.7617,42621.2227,1069.2180,3314.2495,3584.5269,29724.9355,37100.1406,68227.6250,330.995819
5281.7393,3331.8179,3462.5310,-648.4464,41448.0469,43060.1641,56491.8867,44336.5820,6135.4194,-805.6462,3688.7083,1638.7405,69109.6484,50469.9922,56621.2578,41580.8359,3785.6924,3404.8188,2517.4321,30235.2266,36914.9102,68050.6406,330.999817
5815.2085,3633.1418,3440.7380,-1990.5122,41468.9453,42553.7422,56443.4727,43725.2422,7785.5815,-2264.2092,3906.7048,1831.1666,68846.0313,50512.2813,56653.6016,41565.3242,3914.6396,3398.9402,1602.5306,30281.0469,36865.8047,67991.3672,331.003815
2715.6475,2847.4333,3313.3555,1937.5609,41382.4883,43965.2109,56513.5234,45119.1836,3299.0503,1552.5074,2660.1033,3341.3845,69314.1641,51212.8281,56608.0273,42438.4961,2538.9792,3334.9919,3130.4065,29927.7109,37007.0000,68133.9297,331.007813
-1960.7396,-514.5818,3112.4580,3711.3953,41270.5508,45558.3516,56607.6445,46768.5195,-2018.3848,3814.7051,-826.5898,3784.2173,69914.2656,51786.7109,56702.7539,43154.3789,-1192.6667,3262.6394,3706.3662,29554.4141,37167.8203,68293.0234,331.011810
231.6535,364.5569,3285.4158,3166.5940,41368.9414,44949.8242,56610.5742,46248.3047,-21.9494,3212.2808,1240.9912,3397.6663,69821.3516,51309.9023,56705.8359,42617.6016,1054.5330,3317.4233,3581.7776,29730.3887,37100.4297,68228.1797,331.015808
5295.7539,3330.2534,3459.4241,-534.0278,41441.5625,43045.9063,56487.6172,44321.4531,6170.3774,-744.9166,3700.3088,1807.4514,69101.4922,50461.0273,56617.3906,41571.5391,3797.6953,3405.7576,2661.6233,30237.2598,36912.8750,68049.0156,331.019806
5795.6284,3622.6365,3431.5515,-2003.8785,41457.9688,42551.7305,56436.1172,43722.0000,7767.6333,-2315.6184,3895.7749,2013.5569,68840.6406,50507.3398,56646.2930,41561.9063,3909.3870,3397.6438,1817.5544,30277.8730,36864.3516,67990.3828,331.023804
2633.2141,2798.1702,3318.8315,1861.2521,41386.3984,43987.9648,56520.9648,45141.5586,3230.6541,1497.9915,2588.2424,3390.5137,69325.3203,51223.6680,56614.7109,42456.4219,2405.5393,3334.7236,3136.0391,29923.9336,37008.1406,68135.2891,331.027802
-1985.8407,-510.5362,3112.0332,3716.9385,41268.0039,45562.7109,56607.8711,46774.5313,-2032.3546,3820.8518,-767.0448,3789.7830,69916.7266,51784.3633,56703.3320,43155.6523,-1217.1195,3262.8181,3708.6907,29552.7148,37167.7305,68292.8281,331.031799
318.5794,469.6325,3280.3643,3103.0925,41360.9609,44930.3594,56604.0938,46230.6484,45.9328,3142.2976,1333.4380,3369.9277,69812.7422,51296.7813,56700.1367,42604.0781,1146.5997,3320.5303,3582.0457,29734.7266,37100.2969,68227.5547,331.035797
5331.5166,3365.2561,3467.6047,-631.4591,41448.3125,43042.4414,56494.5703,44318.1211,6219.6855,-854.9542,3710.0542,1731.6343,69104.4141,50463.7539,56626.2891,41577.1055,3804.1772,3409.9819,2551.5857,30241.7520,36914.3750,68049.8359,331.039795
5794.4883,3627.7998,3436.5583,-1898.8030,41461.7930,42560.2461,56441.7070,43731.6094,7764.0791,-2292.4841,3901.3403,2038.5013,68847.3516,50513.9336,56652.0156,41571.1367,3912.3599,3402.5166,1796.6779,30279.6172,36868.5547,67993.9844,331.043793
2629.8391,2802.8416,3309.6228,2015.7473,41375.9844,43994.5586,56515.5117,45150.2539,3195.8298,1559.4141,2601.6536,3403.2988,69325.0469,51223.9141,56608.6523,42455.9531,2483.0330,3338.4116,3197.6182,29922.9277,37012.2070,68139.0234,331.047791
-1984.7007,-556.1785,3116.7048,3728.1367,41271.0859,45572.5469,56613.1445,46785.1055,-2047.7327,3833.9053,-817.2692,3795.3484,69923.7656,51789.3906,56708.9648,43161.3047,-1258.4032,3266.6626,3714.1445,29553.8770,37170.7031,68295.7266,331.051788
365.2946,503.9871,3286.1086,3101.6621,41363.4453,44919.5820,56606.3281,46220.0078,74.8783,3137.5366,1321.0775,3375.8508,69810.1250,51292.2656,56701.3203,42598.1523,1104.5785,3321.3350,3579.2742,29737.4297,37097.5703,68225.1016,331.055786
5346.2241,3376.4321,3459.4688,-671.8040,41438.2344,43025.0039,56486.3672,44298.9648,6244.0713,-892.3263,3711.6858,1742.9667,69092.7500,50456.3125,56618.6641,41563.5156,3812.2910,3410.1609,2628.9451,30243.8535,36912.8750,68048.7188,331.059784
5789.8394,3627.1963,3437.9888,-1880.3851,41461.2344,42567.8906,56443.3164,43736.7305,7755.0718,-2293.4900,3901.5862,1992.5461,68849.5156,50520.6836,56653.1992,41575.5625,3911.2422,3402.8743,1815.9451,30279.1016,36869.0898,67995.0781,331.063782
2618.3503,2810.1506,3315.3894,1957.3198,41380.2969,44017.3125,56522.6641,45170.9961,3164.8503,1562.1633,2610.8179,3409.6021,69335.5781,51237.9297,56615.1328,42469.4961,2490.2749,3339.5071,3198.5569,29921.8555,37014.6211,68141.9766,331.067780
-1983.3149,-545.5390,3109.4851,3716.7373,41262.4570,45573.0586,56607.3984,46784.3242,-2047.1515,3819.2871,-755.8019,3786.7876,69920.5703,51787.3789,56704.0508,43154.0859,-1183.9495,3266.4167,3716.0444,29552.8711,37170.5938,68295.7734,331.071777
335.0303,448.2866,3287.4722,3071.9343,41362.0352,44907.1328,56605.0742,46206.3945,77.9182,3110.0439,1365.0657,3350.3923,69805.0078,51286.5664,56699.8711,42587.7383,1158.2450,3322.6091,3579.5422,29742.2363,37096.0938,68223.8672,331.075775
5352.0356,3365.2339,3463.0898,-677.7272,41440.6250,43017.1836,56488.4883,44290.1133,6267.6523,-931.1066,3710.2107,1773.2980,69090.4219,50456.7578,56621.5273,41561.5703,3807.7537,3411.3008,2704.2034,30246.3789,36911.1992,68047.0000,331.079773
5776.6069,3617.6968,3430.0093,-1836.1287,41451.7344,42564.4922,56436.1172,43733.0859,7735.2681,-2258.0850,3892.0867,2074.9795,68843.9766,50516.0352,56645.5313,41568.5664,3909.0518,3402.2930,1964.1819,30276.4434,36867.7266,67993.5313,331.083771
2626.0168,2781.8757,3310.7627,2063.1777,41374.2188,44028.0859,56519.9844,45182.2852,3124.0586,1618.8921,2621.8372,3405.0869,69337.9219,51237.0820,56611.8711,42469.4766,2490.9900,3338.1436,3228.9106,29917.6309,37015.1797,68142.3750,331.087769
-1962.0808,-577.0326,3111.7874,3726.4155,41263.5781,45578.5820,56609.7695,46791.8789,-2051.0408,3831.7817,-745.0507,3788.4863,69924.9453,51786.9766,56706.4414,43156.5664,-1189.5151,3265.3215,3717.1174,29549.8535,37169.6758,68294.3906,331.091766
412.4791,552.3563,3283.0688,3060.6689,41354.9297,44886.4570,56598.6172,46188.0000,155.7917,3082.5959,1405.7682,3340.6917,69795.2188,51272.9766,56692.4727,42574.3516,1215.7113,3322.5195,3571.0264,29744.0918,37093.5469,68220.9609,331.095764
5378.7681,3387.0938,3463.2686,-758.7523,41438.7930,43005.1133,56487.5273,44278.4922,6312.3110,-974.9830,3717.8325,1684.4720,69085.3281,50451.5508,56620.8555,41558.1719,3820.0024,3413.1560,2582.7439,30249.2637,36911.2891,68046.6172,331.099762
5772.3154,3621.9436,3437.0500,-1805.4845,41456.7383,42574.4180,56442.2891,43743.4141,7731.6694,-2257.9060,3897.6077,1975.9388,68850.8828,50521.3320,56651.1406,41579.4492,3908.0906,3403.9917,1844.1530,30275.8164,36869.8711,67995.5703,331.103760
2533.4136,2763.3684,3305.6218,2113.4021,41368.0273,44038.5469,56517.3438,45194.0625,3067.7544,1641.1991,2551.1387,3391.9888,69340.1641,51237.4844,56608.7188,42473.7461,2453.0591,3338.2554,3231.8611,29913.2500,37016.0977,68143.2891,331.107758
-2015.7250,-606.3581,3110.3792,3729.2319,41261.0078,45582.3359,56609.0977,46796.5039,-2076.6782,3831.4688,-837.6763,3787.5254,69926.7813,51784.3867,56706.6875,43156.5664,-1165.0399,3266.3496,3719.7102,29548.9609,37170.4805,68295.2188,331.111755
432.1710,537.4924,3289.5955,3050.2979,41359.1289,44876.8477,56601.7461,46178.9258,161.5584,3077.1421,1439.9664,3339.2388,69794.4844,51267.9492,56695.5117,42571.6211,1312.8967,3322.7207,3572.4568,29747.2207,37091.4219,68219.1094,331.115753
5387.7090,3370.4194,3458.6194,-778.7571,41433.3359,42990.2031,56482.4297,44262.8672,6330.1030,-995.7925,3719.1289,1693.6140,69077.0391,50444.8008,56617.1680,41550.5039,3825.1880,3412.1724,2644.3008,30250.3809,36908.9883,68044.5000,331.119751
2537.2134,2776.5784,3314.4729,2094.2690,41374.9336,44062.1719,56526.6211,45217.0195,2999.5815,1744.9783,2607.2639,3390.4465,69352.7031,51248.3242,56616.7656,42487.2461,2460.3010,3340.3564,3160.0225,29913.6289,37019.9414,68147.3125,331.123749
-1989.3499,-580.2736,3110.2676,3732.9871,41259.6211,45587.1406,56609.6797,46801.3086,-2086.4683,3836.3862,-739.5745,3785.9607,69929.1250,51786.4883,56707.2891,43156.5898,-1159.9437,3269.2554,3724.0686,29550.6152,37173.1641,68298.0313,331.127747
508.9939,619.2774,3292.8364,2998.0618,41360.2461,44865.3828,56602.6172,46166.7227,260.0625,3075.3540,1495.7117,3335.0591,69791.5781,51266.2734,56696.6289,42566.1250,1331.3593,3328.2864,3569.6628,29754.4395,37093.4102,68221.2344,331.131744
5421.9517,3403.5225,3468.3425,-820.1078,41441.8555,42988.8633,56490.2539,44260.0078,6386.8545,-938.0356,3736.5632,1725.5322,69080.2109,50453.4727,56626.1758,41557.7695,3836.8779,3415.2793,2594.6575,30254.8730,36910.1953,68045.7266,331.135742
5749.9414,3614.1875,3432.6467,-1820.8848,41450.2578,42581.9922,56439.0703,43748.6445,7704.4004,-2205.4019,3889.0693,2066.9775,68850.7656,50528.3086,56648.1250,41584.7266,3904.7603,3404.3047,1947.6415,30272.1953,36870.5664,67996.1484,331.139740
2426.5054,2682.8574,3305.1748,2147.3767,41366.1250,44072.8555,56521.2344,45227.0313,2942.1152,1733.3330,2454.8474,3410.0938,69352.8125,51255.5195,56612.0703,42493.2578,2301.0227,3338.1658,3244.7803,29906.0293,37019.0469,68145.9766,331.143738
-2048.8054,-643.7749,3117.5542,3739.9160,41266.1484,45599.8828,56616.7422,46813.6914,-2111.3232,3853.2395,-849.9474,3794.2310,69937.8438,51794.5117,56715.3359,43166.2461,-1284.0630,3269.2107,3726.1250,29549.0938,37173.4961,68298.3203,331.147736
557.2960,703.4988,3295.6753,3037.1101,41360.1797,44852.2617,56602.0117,46153.9609,305.0566,3044.4192,1547.8136,3330.9238,69787.7969,51258.4258,56696.0039,42556.0195,1430.6458,3331.1250,3572.8816,29759.6699,37093.6133,68221.8359,331.151733
5435.4077,3408.6187,3463.8274,-795.4539,41436.2891,42974.3555,56485.1367,44244.2695,6417.8784,-1048.1179,3738.2844,1653.6490,69072.3203,50446.0742,56622.7344,41547.6211,3844.3435,3416.5981,2532.0056,30257.3320,36909.5898,68045.3672,331.155731
5747.0581,3621.3401,3439.0168,-1820.4154,41457.1641,42595.4063,56446.5586,43761.0039,7699.5947,-2200.6633,3895.0818,2029.2701,68858.8125,50538.1875,56655.2773,41598.6719,3901.8098,3404.4165,1778.1035,30270.1387,36870.8789,67996.5313,331.159729
5747.0581,3621.3401,3439.0168,-1820.4154,41457.1641,42595.4063,56446.5586,43761.0039,7699.5947,-2200.6633,3895.0818,2029.2701,68858.8125,50538.1875,56655.2773,41598.6719,3901.8098,3404.4165,1778.1035,30270.1387,36870.8789,67996.5313,331.163727
2390.6531,2726.2644,3301.3079,2181.2173,41361.9688,44085.7070,56520.2500,45241.1367,2902.3291,1817.6885,2491.9065,3427.0364,69356.0938,51261.3086,56609.8828,42502.0859,2374.0681,3335.9531,3201.9768,29900.1055,37018.6445,68145.9297,331.167725
-2040.2672,-653.0956,3107.7417,3737.3457,41254.9727,45593.9375,56608.1172,46809.2656,-2104.1709,3840.2979,-835.8658,3787.2124,69932.0547,51785.0547,56707.1094,43155.7617,-1246.7356,3267.7578,3725.7673,29545.8086,37172.0234,68296.6719,331.171722
658.8624,643.7973,3301.8220,2986.3494,41363.8477,44841.6445,56604.2695,46143.5859,393.6366,3052.7563,1454.5173,3337.1377,69786.2813,51250.1328,56698.5742,42549.0938,1250.4459,3330.7451,3569.3499,29760.4746,37089.6563,68217.4297,331.175720
5461.2686,3417.9170,3460.2510,-807.8814,41431.7266,42959.8047,56480.2617,44229.6523,6456.5024,-968.0764,3733.2329,1782.8645,69063.9844,50436.5313,56618.7773,41538.2578,3832.0723,3412.5972,2639.0481,30253.2871,36902.7070,68037.7500,331.179718
5722.4712,3607.1021,3425.9412,-1741.5361,41442.6367,42587.5820,56435.0234,43753.8945,7671.8115,-2180.5466,3880.1062,2146.9521,68849.2266,50532.7344,56642.9375,41591.8359,3894.9924,3402.1365,2014.1603,30265.2891,36868.6641,67993.8516,331.183716
2323.7766,2654.1130,3302.0007,2191.2085,41363.6680,44104.7734,56525.3711,45261.0742,2830.8259,1785.6361,2401.7620,3451.0645,69364.8359,51276.5547,56613.8164,42520.4609,2238.3259,3337.8752,3273.0105,29898.6758,37022.9375,68149.7500,331.187714
-2073.1912,-707.2538,3113.0168,3738.6196,41259.2617,45603.6602,56613.3672,46819.8398,-2131.7529,3850.4902,-862.9114,3794.4097,69938.8281,51790.5117,56712.9219,43163.3633,-1350.0229,3268.7190,3728.8967,29545.0273,37172.7148,68296.9609,331.191711
646.0995,688.0760,3296.5022,2979.7781,41355.0391,44819.2461,56595.8203,46121.7266,394.3518,2991.8479,1564.0186,3299.7656,69774.2734,51234.8242,56690.0352,42530.0469,1418.2852,3330.8123,3564.2314,29764.1191,37086.7734,68214.7266,331.195709
5473.3833,3426.0752,3463.4250,-886.3361,41433.3359,42952.2500,56482.0977,44220.7109,6481.2012,-1120.4706,3746.9792,1639.9697,69061.4375,50435.8359,56621.6836,41535.8672,3849.7974,3414.3630,2543.8071,30257.8691,36902.5742,68037.9219,331.199707
5720.9512,3610.6113,3430.7915,-1683.9580,41447.2852,42598.8477,56440.1875,43763.9531,7665.3965,-2190.7837,3884.5989,2080.0310,68855.1484,50540.8477,56648.2148,41601.1563,3894.2549,3401.6226,1878.5299,30263.2773,36867.9063,67993.5313,331.203705
2315.8193,2669.6475,3293.0823,2243.3552,41353.5859,44112.8203,56518.7539,45268.8281,2808.6753,1800.7235,2430.9309,3452.2493,69363.4063,51276.3984,56607.3125,42518.2930,2334.4385,3336.1318,3280.0737,29893.7578,37021.9766,68149.5313,331.207703
-2073.5266,-738.6133,3112.0557,3741.3689,41257.0703,45607.5469,56612.7422,46823.4609,-2126.3660,3849.6409,-865.0572,3792.0627,69940.3281,51790.9336,56712.9453,43162.0000,-1251.6753,3268.7861,3730.4165,29544.4004,37172.9375,68297.9688,331.211700
656.3366,717.1780,3303.7888,2983.0190,41359.9570,44809.9258,56599.5117,46112.6094,472.6053,2987.0869,1541.0186,3306.4041,69773.6953,51232.5195,56693.2969,42526.2695,1361.7577,3331.9968,3564.4995,29768.7012,37086.1484,68214.5703,331.215698
5480.2451,3438.4583,3460.4521,-879.3400,41429.6289,42938.8828,56478.7891,44206.4531,6520.6519,-1125.0751,3741.5479,1690.9764,69055.1328,50432.8203,56619.5391,41528.8008,3846.5786,3417.8274,2619.1550,30263.0547,36905.4766,68040.7891,331.219696
5710.8931,3609.6055,3432.4009,-1734.1824,41447.1523,42606.2891,56441.8633,43770.2813,7653.8184,-2107.7471,3883.4368,2034.1428,68858.3438,50547.3945,56649.3320,41607.3242,3894.6572,3405.1541,1872.7632,30264.7305,36872.9805,67998.2734,331.223694
2314.0313,2668.1052,3298.1787,2260.8342,41358.7500,44134.9922,56526.3984,45291.6289,2798.3042,1897.4396,2415.8660,3427.9304,69375.1406,51289.9648,56613.6797,42534.8750,2323.3296,3339.1941,3253.2739,29892.6855,37027.4063,68154.4453,331.227692
2314.0313,2668.1052,3298.1787,2260.8342,41358.7500,44134.9922,56526.3984,45291.6289,2798.3042,1897.4396,2415.8660,3427.9304,69375.1406,51289.9648,56613.6797,42534.8750,2323.3296,3339.1941,3253.2739,29892.6855,37027.4063,68154.4453,331.231689
-2056.7405,-743.7990,3106.8252,3737.1221,41251.3516,45606.3633,56608.8984,46824.1992,-2118.8113,3843.4495,-857.4352,3786.6760,69938.8047,51787.1797,56709.1445,43157.7969,-1231.7375,3269.3000,3731.6013,29542.3672,37173.3203,68297.8750,331.235687
720.6426,666.5290,3303.7666,2971.8430,41357.5195,44793.4297,56596.7617,46097.0977,482.1718,2963.5283,1609.1691,3276.4751,69767.1719,51223.0664,56690.1914,42516.3477,1475.1927,3332.2649,3553.5024,29771.3164,37083.9570,68212.2891,331.239685
5500.1606,3411.6584,3461.3464,-937.5886,41429.6289,42928.8242,56478.3398,44196.3047,6542.3999,-1168.5715,3752.9919,1640.1039,69050.6406,50429.3555,56619.7617,41527.0352,3856.9722,3414.5642,2573.4905,30260.7520,36900.4258,68035.7578,331.243683
5691.6479,3600.0166,3424.7788,-1691.9600,41439.1484,42604.1875,56435.5586,43768.5352,7631.8462,-2136.5808,3874.0488,2126.4556,68853.9219,50543.3047,56642.8047,41604.6211,3886.8342,3401.8906,2010.0476,30259.5215,36869.7617,67995.1406,331.247681
5691.6479,3600.0166,3424.7788,-1691.9600,41439.1484,42604.1875,56435.5586,43768.5352,7631.8462,-2136.5808,3874.0488,2126.4556,68853.9219,50543.3047,56642.8047,41604.6211,3886.8342,3401.8906,2010.0476,30259.5215,36869.7617,67995.1406,331.251678
2173.6177,2620.3171,3289.8191,2300.3521,41349.7422,44142.7500,56520.5430,45299.7891,2670.0945,1896.4561,2345.9048,3447.1753,69373.9375,51288.1094,56607.7578,42535.5234,2199.0986,3333.0474,3291.2048,29884.4160,37023.5391,68150.7578,331.255676
-2111.8152,-763.5356,3108.4792,3742.0396,41252.1992,45611.9063,56610.4609,46830.5234,-2161.7488,3855.3406,-876.1437,3787.7488,69942.0234,51786.9336,56711.3789,43160.4141,-1249.8872,3265.1204,3730.0813,29538.2090,37170.2109,68294.9922,331.259674
760.7640,744.2684,3302.9395,2937.7791,41354.7930,44776.5313,56593.6094,46080.5547,525.4001,2944.6411,1646.1165,3280.9900,69760.2578,51212.6055,56687.1289,42504.7891,1537.3529,3332.9580,3555.7378,29775.3613,37082.2344,68210.9063,331.263672
760.7640,744.2684,3302.9395,2937.7791,41354.7930,44776.5313,56593.6094,46080.5547,525.4001,2944.6411,1646.1165,3280.9900,69760.2578,51212.6055,56687.1289,42504.7891,1537.3529,3332.9580,3555.7378,29775.3613,37082.2344,68210.9063,331.267670
5516.0972,3431.7974,3461.3687,-980.8168,41428.3750,42918.5430,56477.1328,44184.7695,6574.6982,-1185.8270,3758.1775,1566.3431,69045.8359,50426.3164,56620.2305,41523.3711,3864.2366,3415.5923,2457.0601,30262.9414,36899.1523,68034.3281,331.271667
5689.9268,3606.2527,3432.9148,-1688.4954,41446.0117,42617.3086,56442.9375,43781.2109,7624.4258,-2057.0310,3880.7991,2052.5383,68861.8984,50553.8320,56649.8008,41618.5898,3887.5271,3403.1423,1841.5825,30258.1816,36870.5195,67995.6172,331.275665
5689.9268,3606.2527,3432.9148,-1688.4954,41446.0117,42617.3086,56442.9375,43781.2109,7624.4258,-2057.0310,3880.7991,2052.5383,68861.8984,50553.8320,56649.8008,41618.5898,3887.5271,3403.1423,1841.5825,30258.1816,36870.5195,67995.6172,331.279663
2160.4302,2629.6604,3287.9414,2318.3228,41347.1055,44157.0313,56521.1016,45314.5820,2628.6992,1963.3549,2359.0701,3436.8489,69378.8281,51295.4414,56607.5352,42544.2656,2247.1101,3335.1260,3267.7356,29882.5820,37026.4922,68153.5078,331.283661
-2114.8997,-799.0972,3110.7146,3744.0513,41253.3828,45618.4570,56613.1445,46836.7617,-2174.8694,3856.1675,-949.0774,3789.3357,69946.5156,51789.9727,56714.7109,43163.5625,-1293.7860,3271.0435,3735.1553,29540.7129,37174.0547,68298.3906,331.287659
815.0117,756.5842,3318.6304,2987.7129,41367.2891,44775.1016,56604.7422,46078.9922,576.1832,2972.8042,1640.9532,3283.6052,69766.5859,51216.5859,56697.5234,42509.6875,1512.5201,3341.5410,3560.1633,29784.7266,37086.2578,68214.7969,331.291656
5540.2373,3442.0120,3466.1072,-905.9609,41431.3242,42912.0625,56480.5078,44177.6641,6610.8188,-1172.1030,3772.4380,1660.5781,69045.5625,50428.6172,56623.8281,41523.1680,3879.5474,3423.1472,2602.9275,30272.7090,36906.0352,68041.1406,331.295654
5682.3945,3605.0234,3434.8596,-1746.2747,41446.3477,42625.7344,56445.2617,43788.1172,7611.9087,-2130.0764,3878.8098,2158.5974,68866.4844,50558.9531,56651.8594,41622.6797,3888.7117,3408.7080,2042.9493,30262.8965,36877.7188,68002.8984,331.299652
2116.9114,2617.4116,3301.6655,2229.2734,41359.3984,44186.2227,56535.3594,45343.2852,2584.2639,1921.8030,2340.1157,3470.5330,69397.0469,51311.8477,56621.1680,42563.7344,2183.0500,3341.6079,3300.4807,29886.2715,37034.8945,68162.0703,331.303650
-2111.1445,-745.6989,3113.1731,3745.2134,41254.3672,45623.3281,56615.6484,46842.7969,-2170.6001,3858.1121,-815.7492,3791.5039,69950.8984,51791.5156,56717.2813,43163.9883,-1220.1593,3274.7986,3740.5867,29543.5957,37177.9688,68302.3906,331.307648
891.1193,836.7375,3315.1660,2860.7773,41362.0352,44756.3711,56599.1953,46060.2148,645.4960,2887.0852,1720.1008,3232.2632,69757.8906,51205.0078,56692.1797,42494.5977,1605.2799,3342.3457,3556.4529,29787.8105,37083.9336,68212.3125,331.311646
5566.1431,3464.4531,3473.1926,-1060.1655,41438.0781,42910.0508,56486.1211,44174.3750,6650.0459,-1275.3682,3780.0823,1554.9437,69047.2188,50431.5703,56630.6680,41527.0586,3880.1287,3422.5437,2482.8540,30272.5977,36902.7969,68037.9063,331.315643
5670.4585,3601.5142,3431.7080,-1626.7152,41442.7930,42628.3281,56442.9375,43790.9766,7594.6533,-2091.4973,3875.9265,2188.8838,68865.2969,50560.1797,56648.6836,41624.3320,3885.5825,3405.8469,2019.3459,30257.3535,36874.2539,67999.5234,331.319641
-2128.6013,-849.7686,3117.9565,3754.0647,41258.4805,45631.9102,56620.0273,46851.5117,-2193.2649,3872.9089,-922.0988,3796.8684,69956.5781,51794.9570,56722.4453,43169.0195,-1353.9569,3274.2847,3740.4302,29541.7188,37177.2305,68301.6563,331.323639
895.4779,826.7463,3319.9045,2898.1494,41364.3398,44743.6758,56600.2266,46048.0117,668.0489,2895.3555,1702.9570,3265.7910,69754.6094,51199.0156,56693.0977,42487.5352,1548.7300,3343.1726,3554.3967,29792.0586,37082.4805,68211.3984,331.327637
5570.5015,3466.3083,3465.9954,-1035.6904,41429.7188,42892.9531,56478.5859,44156.7188,6671.5039,-1276.3069,3779.3892,1637.5781,69037.1797,50424.2578,56624.6563,41515.1680,3886.0295,3424.5330,2569.0872,30276.8008,36904.1367,68039.3125,331.331635
5667.8213,3605.0903,3438.3911,-1585.4315,41448.1563,42641.2031,56449.2617,43802.6914,7585.8018,-2087.4070,3881.7378,2174.6682,68873.1875,50569.8125,56655.0547,41634.9492,3886.0518,3409.3337,2047.9338,30259.1426,36878.4531,68003.4844,331.335632
2084.2107,2587.7954,3292.3894,2325.9448,41349.5195,44210.0273,56531.2266,45367.4219,2506.7480,1985.5277,2327.6882,3488.5261,69401.8516,51319.5586,56616.2305,42572.7188,2207.2793,3338.3223,3334.7461,29875.7207,37034.0234,68160.6328,331.339630
-2112.9104,-806.7862,3107.4958,3742.9561,41247.2578,45624.9844,56610.8867,46845.0078,-2182.1113,3853.0605,-825.8075,3787.6819,69949.6250,51786.6875,56713.4805,43158.2227,-1242.7793,3271.3789,3739.2903,29537.9629,37174.7031,68298.4766,331.343628
908.7996,816.8668,3317.3118,2862.6548,41360.0898,44726.0859,56595.4180,46030.3086,682.5552,2861.6042,1761.6750,3241.4275,69745.7344,51188.9141,56687.8008,42475.7773,1629.7773,3340.1104,3550.4851,29791.9023,37077.5430,68205.9219,331.347626
5645.5142,3591.0535,3426.2988,-1543.0750,41435.6406,42636.3516,56438.6016,43797.6836,7555.5376,-2048.4702,3867.1646,2229.8770,68864.7422,50562.8633,56643.6563,41627.0156,3878.3853,3404.5505,2116.5090,30252.8613,36874.5195,67999.7266,331.351624
2056.2710,2550.2668,3286.3323,2415.1953,41343.4180,44221.0703,56527.9609,45378.8906,2434.2612,2034.3440,2318.1665,3486.0002,69403.3047,51321.0117,56612.2969,42575.3984,2172.9695,3334.8130,3340.2893,29870.4453,37033.5547,68160.8125,331.355621
987.3436,909.8948,3316.0601,2847.8132,41356.6055,44708.1367,56591.5078,46013.0547,766.5530,2833.7764,1800.7905,3232.5986,69738.4688,51179.7500,56684.1563,42464.4023,1683.7122,3342.3679,3539.4880,29796.7969,37076.7148,68205.5156,331.359619
5598.5977,3474.3103,3464.8333,-1123.9351,41427.4375,42872.3203,56475.4336,44134.8125,6728.4336,-1347.3407,3784.0833,1598.7979,69026.9453,50418.9609,56623.3164,41509.1328,3888.7563,3421.5156,2501.0261,30275.9727,36897.9453,68032.5391,331.363617
5639.2554,3594.4063,3431.4172,-1554.6755,41439.5078,42646.6367,56443.2500,43807.8320,7545.7476,-2049.7666,3869.5786,2146.7732,68870.7031,50571.2461,56647.9922,41638.3047,3876.0605,3404.7070,1996.8824,30250.4473,36874.8320,67999.4375,331.367615
1983.8290,2541.2590,3280.3418,2433.6802,41337.0000,44231.7305,56525.0352,45390.5352,2397.0234,2049.2749,2254.2405,3474.1091,69405.1172,51325.5938,56608.9414,42580.9883,2157.4351,3334.9026,3331.6838,29866.1309,37034.8047,68161.4375,331.371613
-2132.5352,-835.1506,3111.0273,3749.9968,41249.0938,45633.9688,56614.2617,46855.5352,-2202.8538,3864.1470,-882.7151,3788.7324,69956.3281,51787.8945,56717.9063,43161.3047,-1205.1613,3271.9377,3741.4583,29536.3770,37175.3086,68299.2813,331.375610
5610.9580,3461.6370,3463.0002,-1131.1323,41424.7539,42861.1211,56473.2461,44122.3203,6750.4053,-1350.9841,3786.5417,1609.5267,69021.3359,50414.2891,56621.8633,41502.2695,3895.0149,3422.9014,2555.5867,30279.4375,36898.5703,68033.4766,331.379608
5624.9058,3592.0593,3430.0762,-1580.1342,41437.6758,42653.1172,56443.2695,43813.1953,7524.1108,-1983.6725,3865.7788,2203.9043,68872.4063,50575.6016,56647.0078,41642.8398,3872.7971,3405.6235,2034.8580,30250.3125,36877.1133,68002.2969,331.383606
1932.0400,2549.3281,3287.2039,2477.1543,41343.7734,44254.7539,56534.0430,45413.6250,2308.6892,2158.8879,2288.5950,3489.9565,69417.8516,51340.2773,56616.9453,42598.4883,2127.5730,3337.4282,3311.5002,29866.9355,37040.2148,68167.5469,331.387604
-2134.1667,-843.3983,3112.2122,3752.9919,41249.5625,45638.0352,56616.2070,46860.3633,-2216.6223,3865.6895,-831.4625,3789.5818,69959.8203,51789.9063,56720.0977,43162.5586,-1233.4586,3276.1174,3746.3757,29539.6406,37179.1094,68303.2422,331.391602
1082.7855,969.0375,3325.4700,2766.8777,41362.0352,44684.7773,56595.3750,45989.9648,860.1622,2819.2925,1877.7253,3217.3994,69733.0625,51168.7969,56686.8828,42452.0859,1781.7916,3346.7043,3534.5483,29807.3457,37075.6875,68204.8672,331.395599
5633.8687,3487.5649,3468.0295,-1183.6813,41429.1563,42856.1602,56477.0234,44117.0664,6787.2856,-1319.5128,3797.4048,1624.9047,69020.5781,50416.6836,56626.1328,41505.8906,3900.0664,3422.3425,2506.6140,30280.2422,36896.0000,68030.8594,331.399597
5613.5063,3587.2761,3428.0645,-1524.1207,41434.7031,42657.6758,56441.8203,43817.7305,7506.4980,-1988.7240,3860.8391,2240.1587,68872.8984,50576.5859,56645.2656,41644.5625,3871.2996,3405.3999,2112.1504,30248.3691,36877.5156,68002.7188,331.403595
1868.1140,2428.8523,3280.2524,2479.6802,41336.0859,44264.4102,56529.2578,45423.2813,2265.2151,2130.2776,2124.5557,3492.2588,69418.1016,51339.2969,56612.4063,42598.7148,1958.3033,3332.8909,3350.6157,29859.2480,37037.3516,68164.7500,331.407593
-2154.4175,-873.6626,3114.8718,3754.5564,41251.1484,45641.5898,56617.7031,46864.8125,-2222.2998,3877.5134,-906.5197,3790.3640,69962.0781,51788.9023,56721.9297,43163.8086,-1317.6576,3270.4849,3742.3076,29533.7168,37174.1445,68298.2109,331.411591
1131.1323,1053.7953,3321.8938,2811.4023,41355.8906,44663.7461,56588.2461,45969.8711,920.3107,2790.1458,1911.8116,3209.8445,69722.5781,51154.4023,56680.0898,42435.5234,1859.6427,3343.6643,3534.5483,29806.4746,37070.3906,68199.1250,331.415588
5639.5459,3486.6709,3460.9216,-1160.7484,41421.7578,42841.0938,56469.7148,44100.7500,6812.5654,-1405.4106,3793.1804,1542.2032,69011.0781,50408.3906,56620.7227,41495.3633,3899.3511,3420.0627,2431.0874,30278.4316,36892.4258,68026.8594,331.419586
5603.4258,3589.6006,3430.0093,-1479.3726,41437.3594,42667.4219,56444.8789,43826.8086,7492.4385,-1956.2023,3861.3308,2198.0034,68877.0781,50583.3594,56647.8555,41654.4844,3864.2813,3402.0696,1970.1945,30242.2891,36874.3867,67999.3906,331.423584
1826.4280,2470.3147,3272.6082,2526.9988,41328.5078,44273.8867,56524.7891,45433.8750,2219.9529,2201.5574,2154.0598,3501.2666,69418.2578,51342.4258,56607.1094,42602.7344,2035.6851,3329.4263,3331.8850,29852.0723,37035.9023,68163.2734,331.427582
-2149.9248,-959.2474,3106.6912,3749.1250,41242.2969,45637.0742,56610.7734,46860.7227,-2213.4707,3864.7505,-970.2445,3782.8538,69957.2500,51781.8359,56715.5586,43155.3828,-1375.7722,3268.6296,3740.4302,29530.6328,37172.0000,68296.2656,331.431580
1208.0447,976.2571,3329.6499,2742.6484,41361.8789,44654.7617,56592.4922,45960.2383,1027.6885,2788.4695,1788.2736,3210.7163,69721.8125,51150.0430,56684.4258,42432.4609,1631.6549,3342.6584,3529.2957,29808.3516,37066.0313,68195.2109,331.435577
5658.4331,3499.0762,3458.5747,-1182.0944,41418.8086,42829.2266,56466.4961,44088.3438,6849.3120,-1349.7324,3791.5933,1644.4849,69004.3281,50403.2695,56618.3984,41489.3750,3894.8584,3417.8945,2534.3079,30277.3359,36888.0664,68022.5234,331.439575
5582.7505,3576.1226,3420.1743,-1470.1636,41426.0078,42664.9844,56435.7617,43823.7227,7463.5601,-1961.0750,3848.1208,2268.2327,68870.5469,50577.5039,56638.2891,41647.2891,3858.5369,3399.3872,2143.0852,30237.7070,36871.9063,67996.8203,331.443573
1783.1997,2393.0000,3278.0845,2494.6333,41334.2070,44295.9492,56532.4336,45455.3125,2161.0337,2175.2939,2072.4314,3513.0012,69429.4766,51352.3711,56614.4180,42616.0117,1900.5911,3330.5215,3365.7927,29850.5078,37038.1797,68165.5078,331.447571
-2158.3513,-935.5099,3112.2122,3752.2095,41246.8359,45643.2422,56615.6914,46867.4492,-2231.7546,3872.9089,-910.4089,3788.8218,69962.8828,51785.2578,56720.5430,43159.4531,-1373.6711,3271.5129,3744.2747,29533.2031,37174.5039,68298.9063,331.451569
1225.2332,1042.7535,3323.4807,2738.0439,41353.2070,44632.2734,56584.1328,45938.2656,1005.7167,2719.1790,1932.2859,3175.6462,69710.1250,51137.0117,56675.8398,42415.2070,1849.1150,3344.2456,3524.1995,29813.1582,37065.1797,68194.5469,331.455566
5671.8667,3500.7971,3462.9780,-1256.0339,41422.6758,42824.2656,56469.8711,44082.3320,6869.8755,-1487.1509,3804.3337,1531.2285,69004.0156,50405.6836,56622.8008,41491.3867,3905.7661,3419.8838,2426.1477,30280.7559,36888.9375,68023.2188,331.459564
5580.7163,3581.7104,3426.2095,-1365.9597,41431.6172,42677.7695,56442.1758,43836.2617,7452.2280,-1946.7474,3853.9099,2255.0227,68878.2188,50586.9570,56643.8320,41658.9336,3858.4922,3401.4883,2059.3555,30237.4395,36874.4102,67998.9922,331.463562
1782.9539,2424.4712,3269.8367,2563.7002,41325.2227,44304.2617,56527.1797,45464.3164,2138.8606,2202.0044,2117.3584,3522.2771,69429.4531,51353.6445,56608.6055,42616.1016,2014.2498,3331.2368,3381.3271,29847.6465,37040.6172,68167.5859,331.467560
-2161.0337,-967.9199,3112.8826,3755.6294,41246.4336,45645.7031,56616.3203,46870.5547,-2225.6748,3874.7642,-923.5964,3789.5369,69964.8906,51784.9219,56721.5273,43158.8906,-1311.5780,3271.3564,3745.1240,29532.7773,37175.0859,68299.1719,331.471558
1222.4839,1069.0615,3332.8909,2741.7544,41360.2461,44623.8711,56589.8984,45930.2852,1076.6611,2710.8196,1886.5765,3185.4141,69710.9297,51135.6484,56680.8711,42413.4844,1762.8596,3346.9724,3527.1946,29820.0430,37066.5898,68196.0625,331.475555
5675.4653,3513.7166,3459.6699,-1262.0465,41418.3828,42812.5977,56466.3398,44069.8828,6897.8149,-1502.1266,3799.1035,1597.0544,68997.8906,50402.2891,56620.0508,41484.4102,3904.3801,3423.3037,2524.8752,30285.8965,36891.7109,68026.4141,331.479553
5572.4688,3580.4365,3428.2881,-1419.1569,41431.9531,42686.1992,56444.0078,43843.8828,7437.9229,-1852.9819,3852.0100,2225.0266,68881.7734,50592.3672,56645.0195,41664.1641,3858.3132,3404.0811,2038.5237,30238.7793,36877.9414,68003.0156,331.483551
1784.3397,2415.8660,3272.6082,2577.1785,41327.6797,44322.8359,56531.8281,45483.0273,2130.3894,2277.6875,2095.9900,3504.5969,69437.4766,51362.3633,56612.1406,42627.0313,2004.4149,3331.7957,3354.8403,29844.8984,37041.8906,68168.9922,331.487549
-2140.0007,-970.9821,3107.9207,3750.6897,41240.8008,45643.4453,56612.1172,46868.6992,-2217.3154,3865.1306,-908.0620,3784.6196,69962.4531,51780.8320,56717.6172,43152.7891,-1265.8910,3273.0999,3745.7947,29531.9961,37174.4805,68298.5000,331.491547
1299.3292,1053.0129,3334.4556,2744.3247,41359.7344,44609.1836,56588.8945,45915.5781,1101.5834,2695.9780,1977.3694,3167.5774,69705.5703,51130.3047,56679.5742,42405.8164,1908.7495,3349.9900,3514.5659,29825.1836,37065.8086,68195.3672,331.495544
5695.8726,3500.4395,3463.8274,-1280.1067,41421.8945,42807.1211,56469.2891,44063.9805,6922.3574,-1516.4988,3811.3076,1598.0826,68996.8594,50404.7695,56623.4258,41486.7148,3914.7068,3423.5718,2487.8162,30287.7520,36890.6367,68025.2109,331.499542
5550.7202,3573.7979,3425.2036,-1381.1589,41428.1289,42690.6914,56441.9531,43848.3750,7410.9443,-1884.8778,3843.3376,2298.8320,68882.2813,50594.6016,56642.4023,41665.8633,3850.1548,3404.8188,2160.8994,30237.4395,36879.4375,68004.2188,331.503540
1640.5062,2374.8057,3273.0330,2600.3572,41329.0000,44340.8086,56535.1367,45500.6836,2008.1477,2276.8828,2038.5013,3522.0313,69445.3672,51370.5859,56615.1992,42636.5977,1880.4521,3333.5837,3388.2339,29843.4668,37045.9375,68172.9297,331.507538
-2181.2844,-959.4263,3116.3247,3763.5195,41276.2500,45676.4141,56635.7422,46893.2422,-2244.7632,3884.3308,-836.0893,3794.2085,69977.3672,51791.2031,56731.7891,43172.8164,-1152.5900,3286.5110,3766.7383,29533.7832,37176.2930,68300.0859,331.511536
1342.1775,1144.5658,3336.1543,2738.7815,41410.6719,44637.1914,56616.6992,45927.3789,1170.6726,2693.1392,2082.8696,3191.0691,69712.2969,51130.5078,56689.8789,42418.4453,2119.2805,3373.6157,3556.1177,29831.1074,37064.6680,68194.2109,331.515533
5545.3335,3578.6482,3432.7585,-1315.6013,41488.9023,42748.3359,56478.7891,43888.7227,7411.9277,-1768.8947,3859.6768,2321.3850,68902.9141,50614.2734,56660.5313,41703.1914,3880.1733,3425.1365,2306.4541,30237.0820,36880.3320,68004.8906,331.519531
1618.3556,2366.1780,3270.9094,2668.9324,41380.0273,44397.2891,56564.3047,45541.1875,1980.7445,2367.3403,2079.2932,3524.7583,69462.0703,51385.3828,56626.5117,42667.0430,2057.0085,3354.6167,3419.4592,29841.7910,37047.2773,68174.2734,331.523529
-2183.0947,-1025.4086,3116.6155,3767.1406,41303.2969,45697.7813,56649.2422,46907.0117,-2251.2676,3886.6331,-884.7491,3795.9072,69984.1172,51793.9531,56737.7344,43182.7422,-1153.3947,3294.6917,3779.2998,29533.8945,37175.8906,68299.8438,331.527527
1392.6477,1115.6202,3345.2290,2764.8213,41422.0039,44628.6328,56621.7930,45918.9531,1212.3810,2700.3364,2056.2039,3172.5618,69712.0469,51127.0000,56694.2148,42416.7266,2015.4120,3373.1912,3551.2673,29834.2363,37062.0313,68191.8594,331.531525
5718.1348,3511.7048,3462.8215,-1258.5149,41475.5391,42831.3281,56495.4414,44069.9492,6986.7749,-1529.6639,3829.0103,1608.8339,68999.5000,50407.8516,56633.9102,41502.8516,3948.8601,3441.4534,2668.2170,30290.9941,36887.8203,68022.1875,331.535522
5528.1001,3572.0991,3428.9587,-1402.2590,41487.8086,42752.4922,56476.1523,43892.1406,7388.9946,-1867.1753,3850.4231,2362.8923,68901.6406,50615.2539,56657.2227,41706.0742,3869.6455,3421.9849,2403.6172,30232.8789,36878.9023,68003.5234,331.539520
1563.4597,2349.5034,3274.3740,2574.7197,41386.3984,44416.5117,56569.7383,45561.0781,1932.3977,2321.3179,2057.3887,3547.1995,69470.5391,51395.3086,56630.9805,42682.1289,1977.3694,3350.8169,3444.3589,29835.9570,37046.6289,68173.6250,331.543518
-2177.3281,-988.7741,3116.5259,3764.8384,41304.8359,45697.4258,56649.0195,46908.6641,-2240.3376,3883.1238,-779.4277,3793.9626,69985.1875,51791.5391,56737.3320,43180.8633,-1041.8818,3294.4011,3780.2610,29535.2148,37177.9453,68301.6797,331.547516
1458.6971,1185.0000,3346.5032,2621.4126,41424.1289,44612.7617,56620.8789,45903.3047,1288.3545,2612.4270,2105.8472,3109.8652,69707.1328,51118.5273,56692.9414,42406.6680,2138.1008,3375.3145,3547.9146,29842.1934,37064.3086,68194.0078,331.551514
5743.4819,3534.3025,3473.2151,-1377.6273,41488.1211,42832.2422,56504.3828,44069.7695,7024.6836,-1613.7065,3840.2532,1548.1041,69004.4375,50414.1563,56643.5195,41511.0313,3951.9224,3442.9285,2599.2620,30295.5078,36890.0547,68024.1328,331.555511
5516.3208,3570.6912,3427.9976,-1266.2263,41488.6367,42758.2383,56476.0156,43898.2422,7365.9946,-1810.7594,3849.1492,2418.0117,68903.6953,50618.8750,56655.9688,41710.4531,3870.6067,3422.0073,2422.9961,30232.6328,36881.3398,68006.1406,331.559509
1529.0604,2255.5369,3267.8921,2692.1333,41382.0195,44425.8125,56566.2500,45570.6250,1869.4551,2379.2314,1961.5890,3550.9768,69471.8984,51397.6992,56627.0234,42684.3867,1897.2831,3349.8782,3451.9810,29833.7656,37048.8867,68176.0781,331.563507
-2183.0054,-1119.6882,3124.6843,3772.3708,41313.9805,45705.5820,56655.8359,46916.6680,-2267.9644,3900.7146,-925.7422,3800.6011,69991.7813,51795.4063,56744.1016,43187.1211,-1308.7616,3293.8870,3777.7800,29533.3145,37176.0898,68299.6406,331.567505
-2183.0054,-1119.6882,3124.6843,3772.3708,41313.9805,45705.5820,56655.8359,46916.6680,-2267.9644,3900.7146,-925.7422,3800.6011,69991.7813,51795.4063,56744.1016,43187.1211,-1308.7616,3293.8870,3777.7800,29533.3145,37176.0898,68299.6406,331.571503
1521.2150,1228.9659,3349.0959,2675.8613,41426.6563,44598.8125,56620.1641,45889.7148,1302.1232,2624.7205,2110.2280,3170.2148,69702.0781,51110.1914,56692.2031,42396.8555,2057.7686,3375.7839,3546.4617,29844.4512,37061.0898,68190.6094,331.575500
5748.2871,3535.0400,3464.8333,-1308.4264,41481.6406,42816.5078,56496.3125,44053.1172,7038.5195,-1594.8864,3837.8838,1638.8522,68994.1563,50406.1758,56636.9492,41499.2539,3954.0234,3442.3027,2622.6418,30295.9102,36888.0664,68021.8125,331.579498
5509.0566,3574.2898,3433.8760,-1250.8483,41496.3906,42772.8555,56482.3867,43911.7227,7350.6836,-1821.8013,3853.3960,2355.2927,68911.4063,50629.6953,56661.9375,41723.4648,3865.3540,3421.6943,2335.9360,30230.5996,36882.2539,68006.8359,331.583496
1505.7029,2298.8992,3270.7529,2638.8469,41387.4727,44446.2422,56571.9961,45591.4766,1833.1335,2370.9165,2000.4811,3564.0525,69481.8516,51410.2188,56632.4570,42698.3359,1947.5074,3351.2864,3460.7876,29832.9609,37053.5352,68180.5938,331.587494
-2183.9666,-1052.3647,3116.8835,3763.2290,41307.5859,45698.6992,56648.8633,46910.7891,-2259.0012,3880.2852,-797.8679,3792.6663,69987.0859,51788.7891,56737.8008,43176.7734,-1064.7477,3292.7024,3778.0706,29534.8125,37177.8555,68301.6563,331.591492
1495.4658,1169.1302,3353.5662,2588.3989,41431.3242,44585.6250,56621.3906,45876.1953,1316.2495,2573.6467,2155.0657,3100.7681,69698.5703,51104.0664,56693.2070,42389.1641,2179.6079,3373.4146,3540.4714,29848.1152,37058.7891,68188.2188,331.595490
5757.6079,3535.1072,3469.0801,-1396.6934,41487.4727,42812.1484,56499.4844,44048.3125,7059.1948,-1655.3031,3841.9519,1603.8270,68993.7500,50407.7852,56640.6836,41500.2813,3953.3528,3440.8945,2644.0100,30296.8047,36886.4336,68019.8906,331.599487
5490.2588,3564.7231,3425.4048,-1201.8756,41489.2852,42772.2734,56475.5703,43911.4531,7318.4971,-1769.6770,3843.4941,2422.7278,68907.3672,50627.9297,56654.4297,41719.4844,3862.2473,3420.1521,2405.5618,30227.8945,36882.2305,68006.5625,331.603485
1494.0576,2249.6582,3269.3672,2726.1975,41387.5820,44459.9883,56572.8008,45605.8047,1770.5487,2427.9358,1995.2507,3568.8359,69486.5625,51415.9375,56632.7031,42705.1055,1899.6523,3348.4700,3459.9382,29828.2910,37053.4258,68180.3750,331.607483
-2166.3533,-1082.6737,3122.7173,3768.2358,41314.0234,45703.2344,56653.2656,46916.4648,-2259.2249,3892.9138,-791.3188,3797.3601,69991.6875,51790.7539,56742.1133,43179.7695,-1129.8136,3292.0989,3775.5671,29532.5996,37175.8008,68299.1953,331.611481
1577.3179,1288.4440,3349.0288,2600.7148,41426.0977,44562.8711,56614.2852,45854.3789,1401.3425,2544.3213,2200.4397,3118.0906,69687.1016,51090.6758,56685.1836,42371.8438,2226.9712,3374.0852,3522.8137,29852.3848,37056.5742,68186.3672,331.615479
5774.0811,3548.0710,3469.1919,-1448.3259,41488.2578,42803.1641,56498.7031,44038.5000,7087.0225,-1680.7617,3845.6846,1568.1760,68989.4141,50405.8398,56640.0781,41496.7031,3957.3538,3441.3862,2516.4934,30300.0898,36886.7695,68020.5781,331.619476
5479.8877,3565.8184,3429.7632,-1153.2606,41494.4258,42783.6719,56479.7266,43922.6055,7301.1973,-1728.8180,3842.6670,2357.1702,68912.7969,50634.4766,56657.1992,41728.1367,3856.9722,3418.9451,2285.6223,30225.7930,36882.9023,68007.6797,331.623474
1430.8021,2257.5261,3259.0854,2755.0313,41379.1133,44466.2031,56565.4453,45612.3984,1739.9939,2452.2769,1949.8097,3556.5200,69484.1484,51413.5938,56624.6992,42702.2031,1913.1080,3344.7595,3452.8525,29821.8535,37051.7930,68179.1016,331.627472
-2178.8257,-1041.9489,3119.2751,3763.1172,41311.7891,45700.6641,56649.8477,46914.3203,-2261.2813,3885.4482,-822.0078,3792.3979,69989.6328,51786.1719,56738.7383,43174.2695,-1063.6971,3290.3555,3772.7061,29530.9219,37174.4375,68298.2813,331.631470
1609.2137,1247.8085,3355.1309,2583.7275,41432.8008,44552.1445,56617.2109,45843.9609,1419.8945,2539.8958,2217.0247,3123.7231,69685.5391,51087.9258,56688.1328,42368.9375,2248.7419,3374.0627,3525.7642,29855.6484,37054.9648,68185.0469,331.635468
5774.5283,3529.7874,3462.1958,-1473.7622,41483.5391,42788.6367,56491.8867,44022.9648,7103.8760,-1688.6519,3842.3989,1598.7755,68979.8516,50400.2539,56634.7148,41489.0391,3956.9067,3438.6816,2579.9277,30297.5430,36882.9688,68016.3359,331.639465
5456.7759,3560.7222,3426.7681,-1212.2468,41492.8398,42789.2617,56477.7383,43927.0547,7273.3022,-1677.9454,3835.2239,2414.3013,68912.7969,50636.9805,56654.4727,41731.6680,3845.8633,3416.5310,2329.2976,30221.3906,36881.5859,68005.9609,331.643463
1331.9628,2265.6846,3263.0417,2776.4890,41384.6094,44485.3555,56571.3008,45632.1367,1639.3663,2523.8694,1949.5862,3566.6677,69493.4922,51424.0078,56629.5078,42715.9492,1842.3872,3343.5527,3440.0227,29819.2832,37053.8945,68180.9063,331.647461
-2189.5991,-1070.2462,3117.6882,3758.5127,41311.0078,45698.1641,56648.0820,46912.9336,-2266.8245,3879.0781,-821.9183,3787.7041,69988.6953,51782.9766,56737.0625,43170.7852,-1116.5366,3289.9756,3772.7732,29531.5488,37175.1758,68298.8359,331.651459
1662.4780,1286.7676,3355.8462,2548.3000,41433.2930,44535.8711,56614.9766,45827.5352,1498.3715,2550.8704,2220.3328,3137.0449,69679.0313,51078.6758,56685.9453,42358.6094,2232.8945,3373.9063,3512.7776,29859.4941,37053.4023,68183.5234,331.655457
5792.6558,3550.1946,3468.4766,-1457.1772,41490.7813,42786.0664,56496.5117,44019.9922,7134.8999,-1641.4674,3851.7866,1665.6072,68981.3672,50402.9805,56640.0352,41493.1953,3959.9690,3438.9946,2536.0513,30300.2480,36883.5938,68017.1641,331.659454
5792.6558,3550.1946,3468.4766,-1457.1772,41490.7813,42786.0664,56496.5117,44019.9922,7134.8999,-1641.4674,3851.7866,1665.6072,68981.3672,50402.9805,56640.0352,41493.1953,3959.9690,3438.9946,2536.0513,30300.2480,36883.5938,68017.1641,331.663452
5444.5273,3555.8496,3423.9741,-1163.6765,41491.4531,42793.9336,56475.9961,43932.1055,7250.8164,-1697.0785,3827.6914,2464.1233,68913.4219,50639.7305,56651.9023,41735.5547,3844.0305,3416.1733,2396.7327,30220.0273,36883.1484,68007.7266,331.667450
1307.7559,2135.6421,3260.4487,2776.4441,41383.9414,44499.6602,56571.5469,45646.5313,1601.0778,2502.5012,1803.3163,3573.5298,69498.2109,51430.0898,56629.5078,42724.0391,1688.6519,3342.7927,3462.5310,29815.9512,37055.6367,68182.8984,331.671448
-2184.0337,-1029.2979,3123.5667,3764.3689,41317.9375,45703.7500,56653.0664,46919.1055,-2262.6223,3894.0090,-813.2458,3790.9451,69993.9063,51784.6328,56741.7773,43175.0313,-1126.1703,3288.8354,3770.8062,29529.8711,37173.6328,68297.3594,331.675446
1717.1727,1419.3134,3354.2368,2553.0833,41431.2578,44516.3594,56610.4844,45808.5117,1563.0798,2493.4041,2285.3093,3097.0129,69669.8516,51066.2227,56680.5781,42344.6836,2321.1392,3373.0793,3513.4929,29861.9961,37049.7148,68179.7734,331.679443
5804.2783,3558.0400,3467.1802,-1480.6241,41490.4922,42777.1680,56494.7695,44009.7773,7158.6821,-1733.4895,3852.5913,1514.5317,68976.6094,50399.6484,56638.8945,41488.9258,3962.2488,3438.5698,2423.2195,30301.4766,36882.3672,68015.6172,331.683441
5438.1567,3562.0410,3430.2773,-1086.9877,41499.2305,42808.8203,56482.7656,43946.5000,7234.0522,-1627.6316,3831.2229,2408.1992,68921.6719,50648.6250,56657.4453,41748.1641,3840.0295,3414.9666,2262.1753,30216.9648,36882.9688,68007.2813,331.687439
1282.1854,2192.7954,3252.6929,2837.9114,41377.6367,44506.9492,56566.3164,45654.8438,1564.9126,2582.7886,1853.4290,3574.6025,69497.5625,51429.5508,56623.4922,42724.2422,1786.2173,3338.5012,3452.6067,29808.6211,37053.2227,68179.8594,331.691437
-2179.6079,-1117.2520,3117.8672,3755.9199,41312.7734,45697.1563,56647.1211,46913.2031,-2249.2783,3880.0168,-857.3906,3782.0491,69989.1406,51777.6797,56736.0352,43166.6914,-1187.7716,3284.7676,3767.4534,29527.5254,37171.2422,68294.6563,331.695435
1751.6615,1366.3621,3363.0210,2510.7937,41439.7734,44507.5508,56615.7578,45799.8398,1644.4177,2505.7869,2187.2747,3119.3423,69669.9141,51064.6602,56685.2969,42343.7930,2154.4846,3372.4980,3509.0227,29866.3105,37048.1953,68178.5859,331.699432
5810.0454,3565.3713,3462.5085,-1483.2394,41486.6914,42763.4453,56489.2695,43996.2344,7180.5200,-1685.6567,3848.7021,1628.9951,68968.4531,50394.3086,56633.9766,41481.6836,3959.0750,3436.1111,2533.9502,30300.4492,36879.3945,68012.8047,331.703430
5419.9624,3553.9048,3426.2542,-1145.8174,41495.4102,42812.6641,56479.1680,43950.0313,7207.2749,-1674.7267,3822.5952,2460.1670,68921.1094,50650.3242,56653.4883,41748.7891,3835.5815,3415.2793,2404.1311,30215.6465,36884.8242,68009.0469,331.707428
-2165.1240,-1061.7526,3120.6611,3757.0151,41316.1719,45698.3867,56649.1289,46915.4609,-2256.9001,3883.4814,-771.6716,3783.3455,69991.6016,51777.8828,56738.0898,43166.7813,-1122.0575,3285.9968,3767.9451,29528.6875,37172.0664,68295.2422,331.711426
1820.4154,1437.4630,3357.7461,2460.6365,41434.1875,44485.9375,56608.1602,45778.1602,1645.7366,2414.2788,2314.6794,3050.0967,69658.7813,51052.1875,56678.0781,42327.0742,2341.9934,3373.0793,3503.8369,29869.7070,37046.0938,68176.1484,331.715424
5826.4067,3570.3335,3468.6553,-1566.5220,41494.5352,42763.5117,56494.5000,43994.4883,7204.0342,-1796.6779,3860.4368,1489.0061,68970.5781,50399.0234,56640.6133,41486.8711,3964.1265,3436.2229,2426.6619,30301.7227,36878.6563,68011.5703,331.719421
5412.0947,3555.4248,3427.9751,-995.8596,41498.9180,42823.3242,56482.2070,43960.3594,7188.5664,-1642.5626,3823.7129,2460.7705,68925.7813,50657.5664,56655.5469,41757.3945,3834.5981,3415.3240,2337.4783,30214.3496,36886.2344,68010.3438,331.723419
1232.6093,2139.8665,3255.3525,2846.6287,41383.6719,44542.6680,56574.2305,45690.8984,1484.4016,2568.3940,1806.3339,3596.0378,69514.2344,51448.8867,56631.2734,42745.5625,1749.4039,3343.9998,3486.4919,29809.7598,37064.0195,68190.8750,331.727417
-2183.0500,-1142.1964,3129.3113,3766.6265,41325.6016,45707.3281,56657.1094,46924.6250,-2258.4648,3894.5679,-845.5441,3791.0344,70000.4766,51783.6914,56746.7422,43173.4453,-1171.7008,3291.7190,3772.3708,29533.9395,37177.6563,68300.9141,331.731415
1812.2794,1429.9304,3366.6421,2481.7141,41442.5234,44477.4219,56613.4141,45769.8672,1715.2281,2413.3179,2249.5913,3075.7788,69659.2344,51050.0195,56683.1719,42325.2188,2228.5134,3374.8674,3505.4910,29875.8105,37047.0078,68177.2422,331.735413
5823.5010,3572.3228,3460.6086,-1549.4899,41487.5195,42748.2227,56486.5898,43978.5977,7222.7202,-1793.7721,3852.5913,1597.8368,68960.5625,50391.4492,56633.6875,41476.2773,3962.2041,3435.4629,2527.8704,30302.4609,36878.0313,68011.0547,331.739410
5396.0908,3548.6523,3424.9353,-1071.9003,41496.1445,42828.3555,56479.0547,43964.7188,7165.9912,-1538.8951,3815.2415,2428.3606,68924.7969,50657.7461,56651.5898,41759.2695,3824.4280,3409.7808,2285.4211,30207.1523,36882.5898,68006.7891,331.743408
1232.1399,2122.2087,3252.8716,2817.1914,41382.7539,44555.1836,56573.5820,45703.8633,1479.3949,2618.5737,1777.2765,3581.8223,69517.1875,51451.6563,56629.9297,42751.5977,1712.2554,3336.0200,3458.5747,29799.7695,37058.9219,68185.6484,331.747406
-2147.2649,-1100.6892,3118.7612,3754.2212,41315.4336,45695.8594,56646.6055,46914.3867,-2238.7507,3875.0547,-770.7552,3779.7021,69991.1797,51771.6680,56736.4609,43159.3398,-1070.8944,3285.8403,3767.3640,29529.0234,37172.8281,68296.0000,331.751404
1895.2267,1436.0548,3364.3845,2472.0806,41439.3945,44457.7539,56607.7578,45750.3555,1751.2592,2384.3276,2362.4004,3041.9829,69649.3750,51036.5625,56677.7852,42309.7031,2385.1770,3371.8499,3484.2122,29875.8770,37041.2656,68171.3203,331.755402
5838.1411,3561.5044,3463.2014,-1583.9340,41491.2969,42742.0781,56487.8398,43972.1172,7245.7422,-1818.2250,3860.6155,1580.5588,68958.5703,50391.2227,56635.8750,41476.0742,3966.0486,3433.3618,2473.3098,30301.4316,36874.9023,68007.5938,331.759399
5365.5586,3538.1470,3418.6992,-1020.3124,41490.7813,42830.7930,56474.3164,43967.3789,7127.9932,-1579.5306,3800.5564,2486.0503,68922.7188,50657.5000,56645.8906,41757.9961,3811.0393,3408.9314,2378.0466,30204.6934,36882.7930,68006.8594,331.763397
1088.7758,2087.6753,3248.6919,2869.6062,41379.6484,44567.7227,56572.1289,45716.6016,1351.1182,2621.8818,1718.2903,3591.8357,69520.2734,51455.4805,56628.0742,42755.4219,1602.2400,3334.3438,3478.3337,29796.1035,37059.7031,68186.4063,331.767395
-2171.1367,-1061.4172,3122.1809,3756.9033,41319.7461,45698.2070,56649.4453,46917.2031,-2255.2463,3884.0850,-759.1099,3782.0044,69993.9453,51772.9844,56739.0977,43161.1289,-1047.3580,3285.3933,3765.3301,29527.5703,37170.9727,68293.9844,331.771393
1933.2023,1520.3433,3362.8423,2425.1418,41438.7461,44441.0117,56605.1875,45733.4336,1799.2706,2360.7913,2396.4868,3040.8206,69642.3594,51030.0820,56675.0352,42300.0703,2435.6472,3373.9509,3482.3123,29881.5762,37041.6445,68171.9453,331.775391
5850.1440,3576.3459,3467.1577,-1640.8639,41496.5039,42740.2891,56491.7305,43968.7188,7271.2231,-1841.4932,3867.3210,1520.2091,68959.7969,50396.1641,56640.7031,41479.4063,3971.7261,3437.3853,2384.8416,30308.0918,36879.9063,68012.6641,331.779388
5365.5806,3548.8086,3428.8916,-1011.5058,41501.7773,42849.1211,56484.6875,43984.9922,7115.8564,-1487.1062,3810.6147,2463.1846,68934.7031,50670.4648,56655.1641,41772.8594,3818.8401,3413.4241,2272.9041,30208.9395,36889.7891,68014.0313,331.783386
1078.6504,2086.2224,3245.8308,2894.4390,41378.1289,44581.0234,56571.9961,45730.2578,1314.5284,2672.4192,1714.2893,3584.4150,69524.7422,51459.5039,56627.6523,42759.6445,1636.3711,3335.2603,3460.8992,29795.2773,37063.7070,68190.4766,331.787384
-2158.2620,-1093.3579,3124.1702,3757.2388,41322.4297,45699.8164,56651.2305,46919.4609,-2256.3862,3882.7883,-806.5403,3781.5352,69996.6328,51772.8086,56741.3086,43160.4570,-1133.2557,3288.8354,3767.6992,29531.1016,37174.4375,68297.5000,331.791382
2004.7279,1538.4258,3371.2241,2451.6733,41446.6367,44431.3789,56610.2148,45724.3594,1850.3667,2390.8318,2409.2273,3030.1812,69641.9531,51027.3086,56679.3047,42297.5000,2399.0127,3377.1025,3484.2122,29887.7676,37041.7578,68171.8984,331.795380
5856.8721,3573.9768,3462.6875,-1613.9971,41492.6836,42728.1055,56486.6563,43956.1328,7288.2109,-1823.4329,3865.8906,1539.1411,68952.0000,50390.5078,56636.3672,41472.7227,3972.4414,3435.9771,2453.6404,30307.1543,36876.9805,68009.2891,331.799377
5345.3301,3540.4939,3425.6506,-1071.1179,41499.4531,42855.5352,56482.3633,43990.8242,7088.8330,-1569.6736,3800.3105,2520.5168,68935.1953,50671.9844,56652.5938,41776.1914,3804.8926,3411.1443,2408.6909,30203.9785,36888.0430,68012.0859,331.803375
1030.1696,2069.5703,3252.2458,2826.9143,41385.9297,44602.1211,56579.7734,45751.9648,1273.6918,2644.8818,1698.8890,3605.3809,69536.3438,51470.5664,56635.4727,42774.8008,1563.5715,3335.3049,3488.9285,29792.5938,37065.6289,68192.4219,331.807373
-2156.5632,-1088.3287,3121.1528,3751.5391,41319.6797,45694.8750,56647.6797,46915.8164,-2238.3484,3875.1890,-759.3781,3775.6118,69993.8828,51766.5508,56738.0703,43154.0195,-1084.8419,3286.1980,3765.3970,29529.2676,37172.1563,68295.4609,331.811371
2031.1477,1569.2936,3369.4136,2300.6426,41444.2227,44413.5859,56605.4766,45706.2969,1926.2510,2266.4221,2417.0281,2953.9395,69633.7969,51015.3086,56675.6172,42284.1797,2435.7590,3374.1968,3475.8972,29889.2207,37037.6445,68168.5234,331.815369
5867.8242,3585.1304,3465.9731,-1686.0591,41497.5313,42724.2617,56488.8477,43951.5313,7316.1953,-1910.8282,3871.6797,1518.6445,68951.4219,50391.0898,56639.8555,41474.9805,3970.2954,3432.2444,2421.2527,30304.5605,36872.5781,68005.4922,331.819366
5322.5313,3534.0342,3419.1238,-936.1134,41494.5156,42858.3281,56477.6914,43994.2227,7058.2114,-1510.3521,3792.8896,2562.9404,68932.9141,50673.0352,56646.7617,41777.9570,3802.3669,3408.1492,2431.7581,30198.8594,36886.2109,68010.4141,331.823364
5322.5313,3534.0342,3419.1238,-936.1134,41494.5156,42858.3281,56477.6914,43994.2227,7058.2114,-1510.3521,3792.8896,2562.9404,68932.9141,50673.0352,56646.7617,41777.9570,3802.3669,3408.1492,2431.7581,30198.8594,36886.2109,68010.4141,331.827362
972.8373,1950.2791,3243.3274,2921.3059,41378.9766,44610.9297,56574.5859,45761.1484,1206.3236,2692.8933,1575.4180,3604.2634,69535.8516,51472.7813,56630.1328,42777.5508,1469.8059,3332.6003,3492.2588,29786.2246,37064.5547,68191.1250,331.831360
-2137.8772,-1180.0380,3126.5396,3755.2495,41325.3125,45698.0508,56651.3438,46919.5742,-2252.0723,3888.0635,-848.1369,3777.9141,69997.4141,51767.1523,56741.9805,43156.8359,-1235.7385,3283.8735,3761.8655,29525.6699,37168.4258,68291.3516,331.835358
2135.3516,1641.4674,3369.5925,2351.2693,41443.6406,44395.7930,56602.5039,45688.9961,1957.9680,2280.3696,2455.4285,3014.2668,69626.3750,51005.6523,56672.3750,42272.3984,2443.7607,3375.3145,3477.1714,29892.7520,37035.7891,68166.3594,331.839355
5874.6865,3585.3762,3461.7935,-1665.7413,41493.9570,42714.0039,56484.3320,43940.0195,7330.1201,-1899.3618,3869.7351,1481.1160,68945.0469,50387.0430,56636.5703,41468.3867,3972.2178,3433.2056,2354.9351,30306.1934,36872.9570,68005.4922,331.843353
5319.5137,3539.6892,3428.0645,-954.1065,41503.7891,42876.0313,56485.8945,44010.6289,7043.4814,-1532.6144,3799.9082,2422.2585,68943.2578,50684.3438,56654.7617,41792.5977,3798.2317,3407.6575,2276.9944,30196.7148,36887.5078,68011.7031,331.847351
972.4573,1995.4966,3239.9077,2865.7170,41376.7891,44622.7539,56573.2031,45773.5117,1180.1497,2676.3530,1630.5374,3605.5151,69539.0469,51476.2227,56628.7695,42781.8633,1526.3558,3328.4651,3497.0645,29780.5918,37063.7500,68190.5000,331.851349
-2151.0872,-1156.0546,3118.3364,3744.4312,41317.4648,45688.7539,56643.3633,46910.6758,-2246.2161,3867.9692,-758.3723,3767.2300,69990.7500,51758.8828,56734.5352,43145.4375,-1086.5183,3279.9619,3759.6750,29524.3281,37166.5703,68289.4688,331.855347
2080.3884,1536.9282,3375.4485,2250.6865,41449.1406,44384.8398,56605.2305,45677.4648,1962.1031,2216.5107,2453.0591,2930.2913,69623.7578,51002.4336,56675.1055,42269.1133,2467.8337,3372.5205,3470.3318,29894.9648,37031.6523,68162.3125,331.859344
5881.0566,3585.6221,3464.1404,-1723.0513,41497.0859,42708.9961,56485.8516,43934.5664,7348.3369,-1950.3237,3873.2891,1489.3638,68943.5703,50388.4961,56638.7813,41469.4375,3972.8884,3433.1384,2431.4226,30307.4219,36871.9727,68004.4609,331.863342
5297.7656,3528.0662,3419.0122,-882.8044,41495.2539,42876.6328,56478.5859,44011.1875,7005.3940,-1465.0674,3790.0735,2525.1882,68939.3047,50681.4609,56646.6719,41787.9688,3796.2424,3407.7244,2412.1108,30194.7910,36888.4023,68012.6016,331.867340
952.2737,1945.7640,3244.7803,2949.7148,41382.6445,44643.0039,56579.7734,45793.4922,1113.9215,2734.8030,1625.6647,3614.2546,69549.6875,51485.9219,56635.3633,42793.8867,1475.0363,3330.9238,3501.4678,29780.6367,37068.0859,68194.9688,331.871338
-2131.7083,-1147.0244,3130.0935,3755.0034,41329.3359,45697.5352,56653.4688,46920.3984,-2241.3435,3883.8613,-732.3325,3776.3940,70001.0313,51765.0273,56744.7734,43153.2148,-1100.4657,3287.0251,3765.0396,29530.4316,37172.2461,68295.3281,331.875336
2162.8665,1658.4547,3375.5603,2284.3706,41448.2461,44367.3633,56602.6406,45660.6328,2053.2312,2194.8965,2500.0425,2962.0083,69617.6328,50992.2383,56672.7109,42255.3906,2531.8491,3378.4436,3453.0315,29903.5254,37035.1836,68165.7969,331.879333
5894.4902,3597.7590,3468.8342,-1751.0803,41502.4492,42706.3125,56489.3594,43930.8555,7378.0649,-1966.4840,3881.1345,1455.7690,68944.4453,50390.6211,56643.2969,41471.4258,3977.4033,3435.4629,2277.8215,30310.5293,36874.0078,68006.0313,331.883331
5286.3662,3532.4695,3425.9412,-798.9854,41502.6289,42891.6758,56485.4727,44026.2969,6989.8374,-1404.8071,3789.2688,2447.3818,68947.9063,50691.4766,56652.2617,41801.4023,3790.9451,3408.2610,2271.2947,30193.2051,36890.4570,68014.4531,331.887329
888.7501,1970.5297,3238.6335,2986.1707,41377.8398,44652.8164,56577.0703,45804.2422,1094.1403,2765.4248,1588.5161,3612.0642,69551.8516,51488.9414,56632.2344,42796.5469,1502.9313,3332.8237,3506.6309,29779.5410,37072.0664,68198.9453,331.891327
-2137.8997,-1093.1344,3131.0769,3754.4448,41330.8984,45696.5313,56654.2031,46920.1992,-2241.9470,3881.2239,-748.5823,3776.4390,70001.9922,51763.6445,56745.3555,43151.2500,-1018.4125,3289.3943,3765.9111,29532.7559,37173.9453,68297.1797,331.895325
2202.5632,1632.1243,3381.0588,2277.4414,41453.7227,44356.0078,56605.3672,45649.4805,2074.8230,2194.0249,2524.0706,2981.8792,69615.2891,50988.8633,56674.8125,42251.6797,2565.0637,3379.2036,3463.0898,29908.2207,37034.0469,68165.1953,331.899323
5894.0205,3585.1750,3461.1228,-1753.7625,41496.3477,42693.3516,56482.5430,43917.4648,7386.3125,-1963.2877,3875.8147,1563.5715,68935.7500,50385.3008,56637.2188,41463.3125,3978.0740,3434.3677,2424.6055,30311.0879,36872.7109,68005.0234,331.903320
5254.2690,3523.9536,3419.1462,-853.5908,41496.8828,42894.3594,56480.4414,44028.9805,6948.6431,-1353.4427,3775.2319,2561.4875,68945.2031,50692.0547,56645.9141,41801.7617,3772.5942,3404.2600,2376.0798,30187.9512,36887.4844,68011.7266,331.907318
785.6638,1975.2460,3237.0466,2999.6040,41377.9297,44666.6953,56578.0742,45818.8633,994.2950,2815.6492,1576.0885,3618.3674,69556.0547,51495.1328,56632.1875,42804.7305,1421.3698,3327.4146,3489.4648,29772.8359,37069.2734,68196.1563,331.911316
-2133.7422,-1096.0402,3124.1479,3743.3359,41324.8203,45687.8789,56647.4766,46912.4219,-2230.8381,3868.1033,-723.8389,3768.3027,69995.6250,51756.2227,56738.5391,43141.9727,-1045.8828,3286.1086,3762.0444,29530.0957,37170.3242,68293.5625,331.915314
2253.7039,1702.2865,3379.4048,2234.4814,41452.0898,44337.9922,56601.7461,45631.0625,2150.0813,2214.3650,2544.8801,2993.5913,69606.6406,50980.6836,56671.1016,42241.3086,2571.6575,3377.9744,3442.9285,29911.1699,37030.6484,68162.0703,331.919312
5906.4707,3599.6589,3465.3696,-1765.9442,41501.3086,42690.4453,56485.5625,43913.8242,7410.8994,-1935.3928,3882.5203,1584.3810,68935.6797,50388.8555,56640.7695,41466.7070,3978.7668,3433.5630,2352.7893,30311.8926,36871.9063,68004.1953,331.923309
5243.7412,3518.9243,3419.0569,-821.9854,41497.8672,42904.5313,56481.6055,44038.9688,6927.6772,-1390.4796,3768.3027,2590.8801,68949.4766,50698.3125,56646.4492,41807.7305,3773.6897,3407.1433,2436.8765,30189.3594,36892.9844,68017.0469,331.927307
776.9689,1877.1888,3236.3313,2995.7595,41378.4414,44681.3594,56579.5508,45833.5703,972.0550,2794.0798,1472.9352,3623.2400,69561.9766,51501.5000,56634.1094,42811.7031,1322.3291,3329.2251,3510.1401,29771.5605,37073.1367,68199.6172,331.931305
776.9689,1877.1888,3236.3313,2995.7595,41378.4414,44681.3594,56579.5508,45833.5703,972.0550,2794.0798,1472.9352,3623.2400,69561.9766,51501.5000,56634.1094,42811.7031,1322.3291,3329.2251,3510.1401,29771.5605,37073.1367,68199.6172,331.935303
-2126.9248,-1033.7905,3131.9041,3750.6897,41332.5977,45692.3516,56653.6016,46917.7422,-2223.1267,3880.8662,-694.7369,3772.4380,70001.3281,51758.9492,56744.5742,43146.0859,-1009.0918,3287.5168,3762.8713,29531.1914,37171.0820,68293.6953,331.939301
2290.0925,1775.6896,3379.1814,2232.3582,41451.1523,44321.2070,56598.7070,45614.7461,2207.3240,2138.3689,2576.5750,2945.9375,69599.6641,50971.0742,56668.2422,42229.6641,2621.7031,3378.8237,3445.6553,29914.3672,37029.0156,68159.9453,331.943298
5912.1929,3604.4646,3465.4814,-1776.4271,41502.4492,42684.7461,56485.2266,43906.7383,7432.4688,-2011.5005,3884.5095,1441.7098,68933.0703,50388.0508,56641.7539,41465.4805,3981.0020,3434.2336,2224.9819,30312.9648,36871.9297,68003.9922,331.947296
5235.2925,3527.1274,3426.9246,-722.8330,41506.9414,42921.8750,56489.8984,44055.5781,6911.0249,-1300.1339,3774.2261,2564.1025,68959.5078,50709.0430,56653.7344,41822.3242,3772.8625,3408.1045,2329.7222,30188.1523,36895.0391,68019.4844,331.951294
749.7446,1900.0994,3232.5315,3053.2034,41376.0742,44693.3398,56578.2969,45845.8633,936.7169,2866.6782,1494.0800,3628.6045,69565.3281,51504.2070,56632.6133,42815.7930,1379.6837,3328.1523,3505.1558,29768.2539,37074.4805,68201.4922,331.955292
-2128.6682,-1170.5608,3129.1101,3743.6489,41329.9609,45687.2109,56649.9141,46912.5547,-2209.4700,3871.5232,-778.7347,3766.6487,69998.3047,51752.1992,56741.4453,43139.5117,-1156.2334,3284.0969,3759.3174,29529.7598,37168.8047,68292.1953,331.959290
2310.1868,1733.3553,3385.7080,2200.2832,41457.0742,44310.1172,56601.4531,45603.3672,2279.0732,2173.3718,2492.5100,2979.3311,69597.0938,50965.5742,56670.5664,42225.8633,2471.9912,3376.3203,3440.2910,29916.1094,37024.6797,68156.2344,331.963287
5912.1255,3605.6267,3458.6641,-1775.3096,41496.0781,42671.0000,56477.7148,43893.1484,7444.0249,-1952.2683,3878.7205,1559.2352,68923.4766,50380.1367,56634.6680,41456.8516,3977.6938,3430.7690,2354.7561,30309.5000,36866.6523,67998.5859,331.967285
5216.9194,3515.5715,3419.7720,-772.6998,41500.1016,42923.7305,56483.9063,44057.8359,6881.8335,-1348.0784,3761.0833,2606.3921,68956.2500,50708.4180,56646.8281,41822.5273,3763.3408,3405.4893,2469.0630,30182.9453,36892.8711,68016.8906,331.971283
740.2003,1853.4513,3237.1584,2995.5583,41382.4883,44713.1875,56585.2266,45866.5156,920.1319,2835.3633,1449.2423,3638.5510,69575.8125,51515.8086,56639.4063,42831.5078,1286.4323,3327.2583,3522.2102,29764.1406,37075.1719,68201.5859,331.975281
-2098.8064,-1084.9313,3129.6240,3742.7324,41330.7891,45683.9258,56649.6680,46911.2578,-2203.0771,3868.6621,-658.3035,3764.4583,69998.6406,51749.4258,56741.3320,43136.0938,-1020.3795,3285.3933,3760.7031,29531.2129,37169.9453,68292.6719,331.979279
2383.0759,1778.4388,3387.0491,2109.4233,41457.9023,44294.6289,56600.4492,45587.9688,2300.9556,2051.9795,2605.4087,2872.7356,69592.1094,50958.6445,56670.2305,42215.6055,2636.9246,3381.0588,3437.2734,29924.4023,37027.7422,68158.9375,331.983276
5934.2314,3616.9592,3472.5444,-1857.8993,41511.7266,42679.5156,56490.8359,43900.1211,7475.2725,-2062.8872,3896.8923,1438.2229,68933.6484,50392.3398,56648.9727,41470.2852,3985.0029,3435.7759,2271.7417,30316.6543,36872.5977,68004.4219,331.987274
5205.5869,3517.3599,3423.2813,-614.4941,41504.3945,42936.7813,56488.0625,44070.6211,6855.2349,-1299.2174,3764.7488,2623.7148,68963.2656,50714.3398,56650.1602,41828.9844,3765.7771,3407.5457,2446.6218,30183.9297,36897.0977,68021.2500,331.991272
700.1460,1826.1151,3230.8999,3059.0820,41376.5625,44721.3477,56581.0703,45874.9648,853.0990,2859.9727,1435.9655,3637.9475,69576.6406,51514.5547,56635.3828,42828.0195,1329.5488,3328.2864,3531.4861,29763.0684,37078.2813,68204.8906,331.995270
2394.5647,1811.5864,3390.1785,2158.1951,41460.2734,44280.3906,56600.2930,45573.9102,2366.7815,2049.0291,2555.6089,2917.2156,69586.8750,50951.6484,56669.3594,42206.7539,2555.6313,3381.1035,3442.1462,29927.1738,37024.5898,68155.7422,331.999268
5926.4756,3613.8076,3459.5581,-1827.2550,41499.4766,42660.9609,56478.2969,43881.0117,7482.1567,-2050.9290,3884.9343,1523.6960,68919.6328,50381.5469,56637.2617,41455.1992,3982.8350,3432.7585,2353.5044,30313.3672,36867.9492,67999.5469,332.003265
5194.3887,3515.0576,3423.3931,-719.2568,41504.9063,42947.2227,56488.6914,44080.2773,6835.3418,-1205.2507,3758.0210,2553.5750,68966.1250,50720.3086,56649.6680,41836.7422,3758.6021,3404.7517,2350.3528,30178.6309,36895.2188,68019.3984,332.007263
708.3938,1828.6855,3231.2126,3034.1150,41378.8438,44737.8867,56584.1992,45891.7969,864.0290,2898.5293,1423.3367,3632.2925,69583.1875,51522.7578,56637.6875,42838.9063,1320.9657,3326.1182,3515.1023,29757.8379,37077.5430,68203.9063,332.011261
2479.8142,1827.3892,3393.5759,2121.5381,41463.2227,44266.6914,56601.0508,45560.0273,2408.0427,2025.0457,2655.2307,2855.2117,69582.8750,50946.4180,56670.0078,42200.8984,2690.7476,3382.5117,3416.2183,29932.2480,37023.7188,68154.7813,332.015259
5942.1665,3613.9417,3466.8896,-1898.1771,41508.0586,42662.5508,56484.9570,43881.9258,7503.7710,-2073.8843,3895.8865,1495.8010,68923.5234,50387.2227,56644.4375,41462.5977,3986.3887,3434.3677,2329.6553,30316.3398,36869.4453,68000.8438,332.019257
5156.3013,3504.0159,3418.2297,-628.1063,41500.4141,42951.6016,56485.2695,44085.1250,6790.9517,-1223.6909,3741.5254,2637.9304,68966.1484,50720.7344,56645.5781,41836.8320,3738.7539,3406.3833,2485.5811,30178.2070,36898.1016,68021.9688,332.023254
565.0074,1797.4825,3230.5422,3087.6028,41362.6602,44737.6641,56576.0391,45897.8320,745.2742,2913.2815,1336.5001,3640.7415,69585.4297,51524.6367,56635.7188,42837.0938,1133.9263,3320.2175,3523.6182,29756.8535,37081.8984,68208.4219,332.027252
-2082.7803,-1040.7866,3134.2510,3729.9695,41288.0508,45637.4766,56624.0508,46882.9844,-2194.6731,3861.4648,-724.7329,3753.5508,69989.1016,51734.2969,56731.9219,43106.0078,-1122.1693,3267.7803,3729.0532,29533.2910,37170.5234,68293.4297,332.031250
2515.4429,1898.5571,3386.7585,2048.1797,41403.7227,44199.8594,56563.4570,45510.7656,2427.3770,1966.3053,2639.4280,2856.4187,69558.8047,50923.6641,56650.2930,42159.8125,2624.0276,3360.7634,3360.4282,29935.6016,37023.1172,68154.8047,332.035248
5945.0942,3618.2778,3463.0898,-1946.4122,41450.6172,42608.7031,56451.0273,43844.5977,7502.7876,-2100.8403,3884.1519,1402.7507,68905.1484,50373.8555,56629.0820,41432.8906,3962.3831,3414.9888,1974.6425,30316.6973,36869.8281,68001.5156,332.039246
5146.1763,3507.3462,3419.1685,-677.7272,41447.4414,42918.4766,56457.1953,44068.7422,6749.5562,-1153.1488,3730.4614,2564.7285,68957.7891,50716.1289,56634.0195,41819.7773,3705.5615,3383.5847,2150.0813,30174.0723,36898.4609,68022.6797,332.043243
553.7645,1795.8062,3219.9250,3078.2375,41314.7617,44712.9414,56548.7031,45884.6211,687.3384,2929.8889,1291.5284,3622.9270,69574.4063,51515.5820,56620.3398,42817.7383,1075.3201,3301.8889,3473.8857,29750.4609,37080.4492,68207.1953,332.047241
-2071.6714,-1083.5455,3132.3286,3726.6838,41278.7773,45630.0547,56619.4922,46876.2539,-2188.9734,3857.4417,-770.6211,3748.9238,69986.1719,51728.2148,56729.3047,43098.1641,-1160.7261,3267.8921,3726.5498,29532.6875,37168.6250,68291.6406,332.051239
2559.0288,1911.9905,3390.5583,2076.8569,41403.7227,44187.4063,56564.1484,45497.7109,2482.5635,2040.2672,2668.9324,2860.7773,69555.1641,50916.6914,56651.6797,42152.2813,2640.7690,3361.0540,3370.2183,29936.9414,37018.9141,68150.3750,332.055237
5942.7026,3613.2935,3455.9819,-1904.0557,41441.7188,42596.9453,56444.2305,43831.6133,7516.2207,-2061.2107,3879.7263,1469.6047,68896.8828,50368.5156,56623.8047,41425.0469,3961.8242,3413.2454,2101.9355,30313.8379,36866.1172,67997.4219,332.059235
5117.4985,3496.5503,3413.8264,-708.2374,41440.9805,42925.6055,56454.3125,44075.2461,6715.6934,-1227.0214,3714.0999,2632.0295,68958.2578,50721.1367,56630.6250,41824.8945,3686.4507,3382.4670,2310.6563,30169.0645,36897.6758,68021.5156,332.063232
493.1018,1753.2261,3222.3167,3055.8411,41315.9688,44731.1797,56553.4883,45903.4844,632.4650,2927.3855,1246.3779,3638.5510,69583.1250,51526.9844,56624.6328,42831.2148,974.6254,3301.7102,3495.9915,29746.3926,37081.8555,68208.2031,332.067230
-2057.9475,-1075.8341,3130.5405,3720.6489,41274.4180,45624.4258,56616.7656,46871.7188,-2165.9287,3847.1375,-731.9526,3743.1570,69983.8438,51723.5664,56726.5352,43091.5703,-1135.6921,3268.3838,3727.7344,29532.7773,37168.1328,68290.9453,332.071228
2608.8508,1951.7543,3391.3406,1925.5356,41401.1523,44171.4727,56561.9375,45481.1953,2564.2368,1871.3998,2669.3794,2759.9263,69548.3672,50908.1523,56649.6016,42141.3945,2657.6670,3362.1045,3365.4573,29940.2949,37016.6094,68147.9609,332.075226
2608.8508,1951.7543,3391.3406,1925.5356,41401.1523,44171.4727,56561.9375,45481.1953,2564.2368,1871.3998,2669.3794,2759.9263,69548.3672,50908.1523,56649.6016,42141.3945,2657.6670,3362.1045,3365.4573,29940.2949,37016.6094,68147.9609,332.079224
5954.6831,3624.6257,3462.1287,-1962.2820,41446.4805,42597.6641,56449.2383,43831.2773,7540.9644,-2153.5010,3888.3987,1424.0072,68899.2500,50373.0313,56629.2813,41430.3867,3963.7913,3414.0276,2080.5002,30313.8145,36864.9102,67996.0156,332.083221
5096.6670,3491.5659,3410.3396,-616.3046,41435.6406,42932.4688,56451.8984,44081.8633,6686.2783,-1190.9009,3709.5178,2645.9771,68958.8828,50722.9453,56627.1133,41826.7500,3689.1331,3382.3330,2334.6619,30165.5996,36897.4297,68021.3594,332.087219
444.5985,1633.1525,3216.9524,3098.5327,41310.1797,44743.2305,56551.2539,45914.9531,580.9665,2944.5293,1135.5580,3638.4392,69585.8516,51529.3750,56623.2031,42833.8320,920.4001,3300.9949,3502.4736,29741.5430,37081.3867,68208.0469,332.091217
-2052.9854,-1112.9156,3137.8496,3727.0862,41280.0273,45628.3359,56622.7344,46876.0547,-2174.2659,3861.9119,-738.5463,3748.3650,69989.3438,51726.4063,56732.7031,43096.0859,-1185.3353,3269.5684,3728.1814,29532.8223,37166.8359,68290.1016,332.095215
2648.9722,2001.1069,3388.0996,1976.1400,41395.8984,44151.8008,56557.1523,45462.0156,2586.1191,1883.2238,2733.7300,2826.4673,69539.0938,50898.7891,56644.6367,42129.4375,2706.4385,3362.8423,3365.9939,29943.9824,37014.2852,68146.3984,332.099213
5953.6328,3619.6189,3455.1772,-1950.9496,41438.8125,42586.8438,56443.0703,43819.3203,7549.9272,-2145.9016,3883.5930,1364.0822,68891.4297,50368.5156,56624.1875,41424.2188,3963.1653,3412.9771,1986.2877,30313.3906,36863.0547,67994.5391,332.103210
5087.4355,3495.8350,3415.9275,-594.2435,41439.9297,42948.3398,56458.0000,44097.5547,6662.8091,-1181.5355,3713.9434,2527.3340,68967.0000,50733.7422,56632.0313,41841.7695,3685.1990,3381.7295,2221.3611,30162.5156,36897.9883,68022.2344,332.107208
439.9494,1708.6567,3213.5996,3088.2957,41306.1133,44753.3086,56550.7617,45926.5508,552.6692,2953.8501,1206.3906,3640.8533,69589.0938,51534.0000,56621.8164,42839.9336,978.5146,3302.0454,3515.7727,29739.7988,37083.9102,68210.6797,332.111206
-2052.3147,-1136.6755,3134.1167,3720.5818,41274.7305,45621.1602,56619.2695,46869.6172,-2177.8645,3847.8975,-732.6678,3741.4136,69985.8828,51720.4805,56728.9727,43089.3555,-1168.8174,3271.3564,3730.4836,29535.5273,37168.1797,68291.2344,332.115204
2653.8672,1873.6125,3400.7732,1884.2520,41405.9141,44147.8438,56566.4727,45457.5898,2587.2815,1824.8634,2663.9702,2746.6494,69542.8438,50900.2188,56653.5352,42133.4375,2622.8877,3366.5972,3375.4038,29950.9121,37015.3359,68147.0703,332.119202
5960.2715,3621.0271,3457.9937,-1969.0321,41439.9531,42583.3125,56444.9023,43815.6992,7565.3501,-2178.4456,3887.7729,1426.7565,68891.1797,50369.9453,56626.6211,41426.5664,3966.0486,3415.7710,2152.2717,30315.3125,36863.9258,67994.6563,332.123199
5065.0391,3487.0286,3409.5574,-511.1844,41432.3086,42952.4531,56453.5313,44101.6680,6622.8442,-1113.6980,3708.8918,2647.9888,68966.0625,50733.3164,56626.9141,41841.4805,3681.1758,3384.1658,2387.8816,30161.9570,36900.6719,68024.5781,332.127197
413.8202,1635.0524,3218.3828,3138.0730,41310.2227,44773.3125,56557.2891,45946.0195,482.0824,2993.8372,1184.2401,3650.3303,69599.1719,51542.8750,56628.5430,42852.9414,920.7354,3302.7161,3520.2878,29737.2969,37085.7656,68212.4219,332.131195
-2019.7036,-1090.9663,3137.2683,3723.5994,41275.9141,45619.5273,56620.6563,46868.7227,-2154.9763,3851.4961,-678.2860,3741.9055,69987.1953,51718.0000,56730.6484,43088.2617,-1114.2120,3272.1611,3731.0200,29535.7734,37167.5742,68290.4531,332.135193
-2019.7036,-1090.9663,3137.2683,3723.5994,41275.9141,45619.5273,56620.6563,46868.7227,-2154.9763,3851.4961,-678.2860,3741.9055,69987.1953,51718.0000,56730.6484,43088.2617,-1114.2120,3272.1611,3731.0200,29535.7734,37167.5742,68290.4531,332.139191
2729.2148,2023.0116,3391.5642,1920.9760,41394.4453,44122.9688,56555.4531,45432.7344,2679.6165,1792.9899,2734.2217,2767.7493,69528.7656,50884.1484,56643.2969,42113.6563,2731.4502,3366.7983,3339.9988,29953.3711,37012.8789,68145.0156,332.143188
5968.0498,3630.4148,3461.5027,-1989.0593,41442.8164,42582.7773,56447.7852,43813.5313,7587.7241,-2192.9966,3894.1877,1359.6790,68892.1875,50372.8047,56630.7344,41430.0977,3969.2898,3417.0227,1960.8961,30316.9883,36864.9766,67996.0625,332.147186
5046.7778,3485.3745,3411.3008,-429.4217,41433.0039,42964.4336,56455.8984,44113.2656,6602.7275,-1050.9343,3701.0911,2558.8052,68970.8672,50739.7109,56628.2305,41850.8242,3676.1465,3382.2659,2270.1995,30156.7930,36899.4414,68023.1953,332.151184
358.4773,1643.8143,3206.7153,3159.9331,41298.1758,44777.7188,56549.2188,45951.1406,468.3584,3009.7517,1147.3149,3643.9600,69596.2656,51540.3047,56620.6992,42849.5898,942.1484,3301.0396,3526.7476,29731.5527,37085.0078,68211.2188,332.155182
-2033.7405,-1086.7642,3139.6824,3723.6887,41276.7422,45618.1875,56621.8828,46867.9180,-2159.0444,3852.7029,-700.6378,3741.8384,69988.4063,51715.7656,56732.2578,43086.0703,-1035.8693,3272.9883,3731.4895,29536.2871,37166.9023,68289.5859,332.159180
2739.7427,1946.6804,3400.0132,1920.8641,41400.5039,44113.7813,56560.5078,45423.5273,2693.5862,1802.5341,2733.8865,2790.7939,69528.4766,50881.4648,56648.2813,42110.8203,2736.4121,3368.6536,3356.7849,29958.2207,37011.7617,68143.7188,332.163177
5964.6523,3619.2837,3453.8137,-1999.7211,41434.2305,42570.4375,56440.6797,43800.7656,7594.6309,-2186.8723,3888.3765,1459.9935,68883.6719,50366.9258,56624.3867,41420.7773,3970.2507,3417.2017,2111.5022,30317.0996,36863.8594,67994.8750,332.167175
5015.8877,3484.2568,3413.1560,-488.2962,41433.6055,42977.1484,56458.8047,44125.8281,6564.2603,-1009.2036,3692.9998,2659.9470,68976.8516,50747.3086,56630.1758,41858.3125,3657.5276,3385.9316,2325.4084,30158.6934,36904.3164,68028.6016,332.171173
264.7787,1670.0552,3213.6443,3179.4460,41304.3477,44797.9023,56557.5781,45971.9023,387.7804,3054.7905,1159.0944,3655.0466,69608.1328,51552.3516,56628.6797,42862.5742,881.7539,3304.7500,3512.9788,29733.4746,37090.4609,68216.9219,332.175171
-2002.2692,-1040.5183,3133.8486,3710.6130,41269.1406,45607.8594,56615.4688,46858.3086,-2127.8413,3836.2075,-618.7856,3734.6187,69982.2578,51708.1680,56725.8203,43074.7617,-1002.5204,3273.4800,3731.0425,29536.3984,37165.1836,68287.8438,332.179169
2817.8621,2058.8638,3397.6885,1869.2987,41396.5469,44096.2813,56556.4141,45405.5352,2785.4966,1818.9402,2787.0613,2799.6453,69520.1328,50873.4844,56644.5938,42099.1523,2798.3489,3369.5925,3332.7791,29961.2168,37009.1680,68141.1484,332.183167
5974.2856,3630.8843,3458.7312,-2009.9135,41438.5898,42570.2383,56444.7930,43799.6055,7617.5859,-2166.4429,3895.9983,1485.7875,68885.3047,50371.9805,56629.2148,41425.2461,3973.0896,3418.2297,2054.9299,30317.9727,36863.7930,67994.2969,332.187164
5000.2417,3470.0859,3406.8750,-440.1729,41426.6992,42982.5820,56454.3594,44130.8125,6537.1919,-1026.3026,3677.1748,2692.1333,68975.8281,50748.0469,56624.9453,41857.8867,3656.8794,3384.6575,2412.8484,30154.4238,36903.8008,68027.8906,332.191162
259.1908,1570.7688,3208.2351,3186.8223,41298.8242,44808.9414,56554.8750,45982.4336,365.8533,3051.2141,1056.7010,3656.7229,69609.8750,51554.0938,56626.3750,42864.2734,800.3936,3302.2913,3530.9719,29727.7734,37089.5000,68216.0234,332.195160
-1994.3567,-997.8042,3141.2693,3718.7490,41275.1992,45610.4766,56621.2344,46861.3906,-2121.0017,3847.3833,-615.0529,3739.5137,69987.2656,51710.4453,56731.4766,43077.5313,-961.6390,3276.0281,3732.8083,29539.2813,37166.9492,68289.8047,332.199158
2854.5188,2112.9773,3399.2307,1865.4318,41396.0547,44081.5273,56555.7695,45390.6250,2834.3799,1736.2164,2810.8660,2774.0972,69515.1328,50867.8281,56643.8555,42090.7031,2842.4043,3374.3979,3346.1902,29969.0840,37011.7617,68144.0313,332.203156
5978.2197,3634.5947,3459.2454,-2005.8455,41438.4336,42567.3750,56445.3945,43795.2461,7632.4722,-2224.0208,3898.5688,1431.3610,68884.4531,50373.7227,56630.9570,41425.9375,3976.7551,3421.2473,2018.4296,30321.5254,36866.5859,67997.2422,332.207153
4988.4175,3475.9197,3412.1948,-363.9311,41431.2813,42998.3633,56460.4609,44146.2344,6515.1084,-930.9948,3680.5723,2720.0730,68984.2500,50757.5703,56630.0664,41870.4258,3658.0417,3386.1997,2393.4023,30153.3730,36906.2813,68030.2578,332.211151
235.3415,1556.8213,3201.5295,3219.1653,41291.6289,44816.8320,56550.8945,45990.8125,338.2489,3101.3938,1048.5874,3657.2817,69610.1719,51554.0078,56622.3984,42864.9883,838.7045,3300.3691,3525.5630,29722.5000,37088.7188,68215.0156,332.215149
-1997.3518,-1149.0585,3137.8943,3708.7354,41270.3477,45602.8320,56617.1445,46854.0820,-2100.7734,3837.6379,-718.1839,3732.9424,69982.8828,51702.7813,56727.6094,43069.9102,-1142.7776,3273.4575,3729.4778,29536.5781,37162.9023,68285.3359,332.219147
2868.5557,2081.3721,3402.8965,1835.3240,41397.8438,44067.7578,56556.3477,45376.9688,2905.3691,1773.2532,2736.7698,2796.3372,69510.1641,50860.2539,56644.2813,42084.4883,2712.7417,3371.1123,3342.9268,29968.6582,37005.2109,68137.1250,332.223145
2868.5557,2081.3721,3402.8965,1835.3240,41397.8438,44067.7578,56556.3477,45376.9688,2905.3691,1773.2532,2736.7698,2796.3372,69510.1641,50860.2539,56644.2813,42084.4883,2712.7417,3371.1123,3342.9268,29968.6582,37005.2109,68137.1250,332.227142
5977.8398,3634.4607,3453.7468,-1998.6035,41432.1758,42557.0703,56440.0078,43784.6953,7642.0835,-2178.3340,3894.8359,1500.7407,68877.3203,50368.3359,56625.9531,41420.3750,3975.5259,3419.1909,2109.9600,30319.1113,36862.6953,67993.1328,332.231140
4974.7158,3464.6990,3407.8362,-399.4033,41425.9609,43005.6719,56457.7109,44153.0742,6489.3818,-999.3912,3668.6365,2719.4026,68984.7031,50759.1992,56626.3750,41874.0039,3649.5928,3384.3669,2475.7461,30148.6582,36904.7617,68028.6250,332.235138
234.7157,1498.3268,3206.8047,3174.7300,41296.9922,44836.1680,56558.0039,46010.5938,327.4754,3071.0178,995.8372,3667.5413,69620.6719,51563.8203,56629.4375,42878.8906,750.2363,3300.3691,3542.2820,29719.4375,37089.5000,68215.8672,332.239136
-1956.4258,-1070.1121,3139.4812,3709.8083,41270.2148,45598.4961,56617.3242,46851.1992,-2091.2515,3832.3406,-604.0112,3731.2883,69983.0156,51699.8945,56727.6953,43066.3125,-1003.1016,3277.4363,3732.4729,29540.8691,37165.3398,68288.1719,332.243134
5987.9648,3639.3557,3459.3794,-2082.3555,41438.2539,42558.7500,56445.2148,43785.1211,7664.0552,-2260.4094,3904.2461,1415.4465,68880.3203,50374.1250,56632.5234,41428.1758,3975.8835,3418.8779,2021.5811,30318.5313,36861.5781,67991.9453,332.247131
4944.8765,3461.5027,3403.9695,-273.6300,41421.9375,43013.2695,56455.9219,44160.9453,6445.7510,-943.8471,3665.2390,2765.9165,68985.9531,50764.3633,56623.4492,41880.1953,3645.9048,3384.4563,2506.2117,30145.2148,36905.4766,68029.2500,332.251129
171.5720,1465.5144,3200.7920,3222.2498,41290.4414,44845.2188,56555.0742,46020.0273,238.7390,3093.3250,962.1755,3667.7646,69622.1484,51567.4414,56626.4883,42882.3359,778.2206,3301.8442,3549.8816,29717.1797,37091.8008,68217.6563,332.255127
-1972.9661,-1134.1051,3145.1809,3712.3118,41274.0820,45598.3398,56620.7422,46851.3555,-2090.7373,3844.1870,-695.3851,3731.3777,69984.8984,51699.1797,56730.9375,43067.9219,-1067.8770,3273.0105,3728.4050,29537.3594,37160.3555,68282.7422,332.259125
5980.2759,3633.5889,3449.8127,-2055.6675,41427.3906,42544.9336,56435.6055,43770.4141,7668.2349,-2249.9490,3895.0371,1426.2871,68869.4766,50366.2578,56623.6484,41417.3555,3974.9670,3417.0898,2075.1135,30316.1172,36858.4492,67988.4141,332.263123
4940.7637,3462.5979,3408.9985,-344.7756,41425.7383,43029.5430,56461.0195,44176.6133,6433.0107,-834.4800,3664.7920,2653.9343,68993.6406,50773.9766,56627.6523,41892.9570,3646.2175,3383.6294,2359.1819,30141.2598,36905.2773,68028.8750,332.267120
-1918.0925,-1055.0470,3141.4482,3706.5002,41268.7617,45589.7109,56616.4063,46843.4648,-2056.6733,3826.0151,-529.2893,3722.9734,69981.7891,51692.1406,56727.1367,43057.1484,-906.7432,3278.7996,3732.5847,29542.5449,37163.9531,68286.7031,332.271118
3035.6350,2147.8684,3412.9102,1746.7217,41401.2617,44026.9219,56557.4648,45334.9023,3047.2356,1621.1943,2884.6489,2645.5300,69497.8984,50842.5508,56646.6484,42062.1367,2909.1465,3379.3601,3307.4546,29985.6250,37005.2109,68137.7734,332.275116
5991.8096,3635.9358,3457.2559,-2095.9006,41434.8359,42548.1758,56442.3555,43772.4492,7690.7432,-2265.2598,3905.9895,1437.4407,68874.5703,50373.0313,56631.5859,41424.8203,3979.5269,3420.5098,2082.4895,30319.6270,36861.1563,67991.3906,332.279114
4889.9580,3449.3657,3402.7178,-229.1501,41419.2344,43035.4453,56457.2188,44182.5117,6378.5396,-844.3371,3642.3284,2749.2197,68993.7734,50776.6797,56623.1797,41894.8125,3615.3721,3386.1328,2517.9016,30141.5059,36909.3438,68033.2109,332.283112
43.3177,1438.0889,3202.0215,3259.1301,41291.6289,44875.8398,56560.7070,46051.5664,148.1474,3150.4558,921.1824,3675.9678,69636.0938,51581.4102,56632.5234,42899.8359,683.0916,3302.4478,3558.7998,29712.2617,37095.9805,68222.0625,332.287109
-1926.6085,-1014.4562,3147.8630,3706.7239,41273.9258,45589.5313,56620.7422,46844.4063,-2060.6072,3835.5815,-545.6955,3726.9521,69985.2109,51691.6914,56731.3164,43058.6914,-846.3041,3278.2185,3731.5342,29542.7012,37162.8594,68285.5625,332.291107
3067.7544,2209.4922,3406.4280,1731.2766,41393.5508,44004.6367,56549.8203,45313.3086,3089.0110,1586.8844,2905.9055,2700.6719,69486.5000,50830.0117,56639.3398,42046.6250,2951.1008,3379.7849,3316.9763,29988.7539,37003.3320,68135.8281,332.295105
5994.4692,3640.5403,3457.0100,-2083.1155,41434.0977,42543.5039,56442.0859,43767.1719,7704.5566,-2272.5911,3907.9119,1458.9877,68872.6953,50373.2539,56632.2109,41424.5313,3982.1196,3421.9849,2024.6656,30321.5488,36862.4063,67992.4609,332.299103
4876.9048,3452.9197,3405.9810,-211.2463,41421.6016,43049.0781,56461.1523,44196.5273,6350.4209,-750.1469,3645.1448,2742.0896,69000.4609,50783.2969,56625.8164,41904.1563,3621.9436,3385.4846,2420.7832,30138.6660,36909.9727,68033.9453,332.303101
26.7997,1430.2434,3193.4829,3275.0444,41282.7539,44881.8750,56555.1406,46058.4727,111.9375,3173.8135,919.7519,3670.0669,69635.3828,51579.6445,56627.0469,42897.3555,714.1382,3301.5090,3549.9263,29708.2383,37096.1367,68222.0781,332.307098
-1908.8165,-1047.8274,3146.8796,3703.3933,41271.7813,45582.8945,56619.0000,46838.5039,-2048.4927,3831.7371,-542.6780,3724.6721,69983.0156,51686.9766,56729.4844,43052.7656,-903.3010,3281.1018,3731.3777,29544.5566,37162.5234,68285.0703,332.311096
3111.4521,2226.5466,3411.3008,1750.7450,41397.2617,43993.1719,56552.3906,45301.7969,3135.8379,1656.8453,2931.6995,2718.4639,69483.6563,50826.9492,56641.4180,42043.2500,2952.2629,3381.1482,3322.8325,29992.7539,37001.1445,68133.6797,332.315094
5993.9106,3638.1487,3453.5232,-2070.5762,41429.7617,42536.3750,56438.5781,43759.1914,7712.4243,-2250.7534,3905.6543,1515.8059,68867.7578,50371.2422,56629.1055,41420.4180,3983.2820,3422.5884,2110.9880,30322.5098,36862.3633,67992.5703,332.319092
4854.3291,3439.5757,3404.5281,-290.1703,41418.9219,43059.0234,56460.4805,44205.5586,6315.7310,-839.6656,3628.0232,2779.3052,69002.8984,50786.6250,56624.1406,41907.7305,3599.6365,3384.8811,2531.7598,30136.1406,36910.5508,68034.9063,332.323090
-14.7074,1342.8257,3196.9922,3247.8201,41285.8164,44899.7578,56559.9688,46076.0625,63.9483,3167.7114,845.2535,3680.7288,69643.9453,51587.4453,56631.8320,42906.7188,571.3553,3300.7490,3563.0916,29705.0645,37097.0313,68223.2422,332.327087
-1886.3307,-1042.3959,3144.8457,3693.1338,41268.1602,45575.8086,56616.0508,46831.8867,-2021.7599,3815.6885,-505.7753,3718.2795,69979.7969,51681.6797,56726.2656,43044.8555,-881.8210,3281.3701,3731.0872,29545.2715,37161.5156,68283.8594,332.331085
3154.6133,2264.7456,3410.8984,1628.3916,41394.8477,43976.8086,56549.6875,45284.5430,3203.6978,1503.4230,2933.8452,2648.0334,69476.5078,50819.2578,56639.0039,42032.3203,2968.7810,3381.6624,3317.4683,29996.0625,36998.9766,68131.3594,332.335083
3154.6133,2264.7456,3410.8984,1628.3916,41394.8477,43976.8086,56549.6875,45284.5430,3203.6978,1503.4230,2933.8452,2648.0334,69476.5078,50819.2578,56639.0039,42032.3203,2968.7810,3381.6624,3317.4683,29996.0625,36998.9766,68131.3594,332.339081
