Fp1,Fp2,F3,F4,C3,C4,P3,P4,O1,O2,F7,F8,T7,T8,P7,P8,Fz,Cz,Pz,AFz,Cpz,POz,TimeStamp
73.5372,-143.8335,3679.5664,2832.6140,78438.6172,85515.9844,105857.2578,64460.5977,3440.6709,3203.2732,3475.6738,3454.8420,80860.9219,70235.0547,74665.6641,83842.2813,3707.4167,3544.9641,3620.2673,79182.8438,73425.3906,-2814.7998,349.567383
3693.0444,3844.6340,-1446.6495,-336.1479,78484.7500,85706.3750,105777.9531,64623.6055,2932.6829,3419.9509,3496.4832,3557.2354,80632.9766,71299.1328,74391.8125,84477.2109,2135.1504,3371.5371,3301.8889,80100.1797,73414.4844,-2952.6206,349.571381
3978.3645,4149.4673,-2436.4294,-831.4625,78494.4922,85758.4766,105784.1641,64689.0547,2799.4441,3504.9099,3486.7156,3597.3120,80596.8984,71489.5078,74357.5234,84635.3281,1569.9418,3340.8704,3201.8425,80212.8281,73421.7422,-2952.7100,349.575378
1517.9069,1067.9216,2243.7798,2431.2661,78445.5234,85598.7500,105857.6094,64557.8242,3401.1306,3323.6597,3458.8430,3517.4939,80796.1016,70533.0703,74594.9844,84095.3281,3459.7371,3517.1809,3586.2031,79381.2344,73434.4375,-2797.7007,349.579376
-2158.2397,-2387.8367,5166.0469,3445.4766,78411.2109,85449.8438,105909.7578,64407.3555,3581.0623,3125.2432,3459.0442,3434.7031,80975.9609,69674.8125,74799.2813,83570.0625,3962.6736,3633.7007,3764.6594,78703.3750,73436.0078,-2718.9331,349.583374
86.3448,-58.7180,3635.0193,2791.8223,78441.3438,85540.2109,105861.5469,64464.4609,3447.5105,3220.4392,3483.8098,3491.1189,80865.1875,70205.5781,74662.7344,83852.1172,3700.7559,3545.4558,3617.8308,79188.2734,73422.4141,-2834.1116,349.587372
3699.9512,3866.1365,-1509.8827,-299.9157,78482.7578,85714.8438,105776.2500,64622.2656,2970.4126,3427.3716,3499.0090,3575.1614,80633.2422,71280.9141,74387.5000,84478.2813,2173.6848,3381.5505,3352.8958,80101.3594,73411.8672,-2956.4875,349.591370
3970.7427,4136.6821,-2422.5491,-743.5308,78480.6563,85743.2578,105769.7500,64675.2852,2838.4033,3483.2288,3476.0537,3586.4714,80587.9375,71478.7109,74346.9531,84618.1172,1693.9269,3364.1609,3324.8889,80205.1875,73417.7422,-2942.4060,349.595367
-2160.3408,-2402.2312,5176.6191,3443.9343,78410.9922,85427.7578,105903.3672,64404.6719,3584.7502,3134.7874,3461.7039,3409.2444,80975.9844,69709.9219,74804.5391,83560.6719,3966.8311,3630.9290,3765.5088,78686.0313,73427.3984,-2728.6338,349.599365
129.0813,-89.7870,3655.2700,2814.5315,78433.0703,85507.9609,105847.3984,64454.5625,3439.9780,3205.4858,3476.1655,3452.6292,80857.7031,70245.9609,74659.9453,83835.1797,3691.6362,3545.8582,3621.6978,79174.8125,73417.3203,-2825.7075,349.603363
3729.2991,3878.0498,-1487.4192,-363.9981,78485.4453,85695.7813,105772.7188,64622.3320,2919.4729,3433.1160,3502.4736,3550.4626,80635.4375,71326.4922,74393.2891,84474.0547,2044.4246,3370.5759,3295.0271,80089.9609,73408.6953,-2967.7751,349.607361
3988.4897,4150.8755,-2419.2856,-696.2344,78487.0781,85734.3594,105772.4766,64679.1719,2766.2295,3500.5288,3484.1003,3576.4131,80594.4219,71510.9375,74354.3750,84618.4063,1618.3781,3336.8472,3182.9553,80192.4219,73414.5000,-2949.5583,349.611359
1563.5939,1078.0693,2280.7273,2505.6528,78437.7031,85573.1797,105846.8828,64547.2305,3400.9294,3317.4683,3456.3843,3495.7903,80794.5313,70550.7344,74593.0000,84075.5000,3502.3394,3521.1597,3590.7629,79356.7578,73426.8438,-2797.1418,349.615356
-2142.1018,-2385.4451,5175.7920,3453.7468,78406.8750,85431.4063,105902.3594,64400.9180,3585.7561,3133.8040,3460.4299,3422.0073,80974.8047,69693.7422,74796.9141,83558.1484,3965.6240,3633.0747,3765.8889,78680.4844,73424.0469,-2723.8059,349.619354
3713.0046,3883.6602,-1482.0770,-160.9549,78474.4922,85710.0625,105769.0313,64615.5586,3020.7263,3423.7954,3495.3433,3577.8213,80628.3750,71276.0000,74376.5000,84469.8125,2176.3223,3384.8362,3364.3398,80089.4297,73405.8984,-2952.7546,349.623352
3974.0952,4142.4263,-2411.1050,-549.6741,78477.1094,85750.6563,105768.9688,64672.6484,2880.8269,3493.1082,3477.6184,3603.5034,80588.3203,71453.4531,74339.7969,84612.8828,1601.5024,3366.7090,3339.8645,80185.1406,73409.2500,-2942.2942,349.627350
1561.8951,1084.1489,2283.2083,2554.3796,78432.9141,85589.8125,105845.8750,64544.1250,3399.8567,3323.0115,3453.6350,3517.9187,80791.4922,70501.7578,74584.2109,84071.8828,3456.3618,3519.5950,3593.9592,79340.5313,73418.1719,-2797.2537,349.631348
-2140.2241,-2381.4666,5169.5112,3453.8584,78398.6094,85435.7422,105895.6328,64394.0977,3583.0962,3123.4998,3453.0986,3426.6565,80968.4531,69664.5313,74786.1641,83549.0078,3963.5005,3632.6501,3764.1455,78667.7188,73419.2656,-2719.0225,349.635345
88.9599,-93.0056,3631.5325,2875.9541,78428.7813,85521.6641,105845.1406,64452.3711,3442.2131,3214.8960,3478.0208,3476.6797,80855.1563,70220.7109,74646.0625,83836.6719,3683.3662,3545.0313,3615.8193,79165.1563,73408.4688,-2833.5305,349.639343
3715.6199,3879.1003,-1503.8253,-200.2493,78476.6172,85698.3047,105766.1016,64615.9609,2989.4563,3432.7585,3499.3667,3560.9905,80629.5781,71306.5547,74377.4141,84468.2656,2113.1338,3382.9141,3345.4077,80076.5547,73400.3125,-2961.2261,349.643341
3972.7766,4135.3184,-2408.3110,-594.5787,78474.2656,85723.9922,105762.1016,64668.1523,2876.3564,3487.4309,3474.6455,3568.7688,80587.2188,71494.7344,74340.6250,84601.8203,1704.7451,3368.5420,3332.0190,80168.1719,73407.3750,-2942.2495,349.647339
1435.3396,972.9490,2294.9429,2521.3884,78432.6484,85559.8359,105842.0547,64541.8008,3406.4951,3322.5420,3453.3892,3481.1052,80793.6875,70551.0000,74590.0703,84061.1328,3493.5105,3522.4114,3600.3071,79322.4922,73417.7188,-2808.3625,349.651337
-2179.5408,-2422.5266,5180.0615,3455.6018,78401.4219,85409.9688,105894.9844,64395.1719,3589.4219,3137.3354,3457.6582,3398.9180,80972.2344,69713.6563,74793.7188,83543.8438,3966.9429,3632.6948,3768.0122,78651.5391,73415.2656,-2728.8350,349.655334
150.8519,-61.0203,3627.5762,2856.7539,78421.3594,85496.6719,105836.1953,64445.0156,3439.1733,3209.8892,3472.4104,3452.6292,80849.2969,70247.4609,74642.5547,83825.2109,3689.6023,3543.3997,3617.9873,79152.4609,73401.7422,-2825.7522,349.659332
150.8519,-61.0203,3627.5762,2856.7539,78421.3594,85496.6719,105836.1953,64445.0156,3439.1733,3209.8892,3472.4104,3452.6292,80849.2969,70247.4609,74642.5547,83825.2109,3689.6023,3543.3997,3617.9873,79152.4609,73401.7422,-2825.7522,349.663330
3728.5615,3884.9790,-1504.6970,-244.0140,78469.2813,85688.4063,105759.1328,64609.5039,2935.4546,3430.0093,3493.8235,3554.5308,80623.9453,71305.9297,74372.9922,84459.2813,2038.7920,3371.3582,3306.6274,80064.5234,73393.1563,-2962.1201,349.667328
3968.2839,4130.3564,-2408.7803,-519.5439,78474.3828,85735.7031,105764.2266,64669.0039,2850.7190,3500.5737,3476.6572,3587.2314,80588.6328,71467.6016,74341.8984,84601.1953,1558.5870,3362.3057,3309.1980,80156.2344,73402.5859,-2947.6809,349.671326
1422.4203,959.7392,2304.2637,2593.0259,78427.6406,85580.8906,105841.6719,64538.6250,3404.0364,3320.8208,3449.7458,3509.2461,80791.9844,70495.5000,74585.7813,84056.9297,3467.2695,3526.3452,3605.2021,79313.2813,73416.5156,-2802.7075,349.675323
-2194.5388,-2430.9980,5179.5474,3472.7681,78400.4141,85444.5469,105898.5156,64396.2891,3595.5461,3140.3752,3457.2112,3438.1228,80973.0391,69652.7031,74790.5234,83547.7109,3967.2334,3637.6121,3771.9460,78647.8281,73416.5156,-2735.2947,349.679321
131.4283,-67.7034,3614.2546,2945.8928,78430.0313,85538.7578,105847.9375,64455.4102,3454.5291,3233.8279,3481.8652,3499.0313,80856.8047,70200.6563,74644.8359,83841.2578,3693.1338,3548.9429,3621.7200,79153.8906,73405.0234,-2835.4082,349.683319
131.4283,-67.7034,3614.2546,2945.8928,78430.0313,85538.7578,105847.9375,64455.4102,3454.5291,3233.8279,3481.8652,3499.0313,80856.8047,70200.6563,74644.8359,83841.2578,3693.1338,3548.9429,3621.7200,79153.8906,73405.0234,-2835.4082,349.687317
3715.0164,3887.1470,-1524.5231,-43.1836,78468.7891,85711.8750,105762.3750,64611.2227,3029.8459,3432.6467,3494.4717,3581.4871,80624.4609,71268.1094,74367.1797,84463.6172,2154.9539,3387.0044,3370.8889,80062.0703,73394.9453,-2954.6545,349.691315
3962.8301,4132.1445,-2424.6948,-507.5187,78472.8594,85743.9297,105765.7266,64668.8711,2948.5303,3500.5513,3477.1042,3596.5298,80589.1250,71450.9063,74337.0078,84599.9844,1728.5945,3372.8557,3357.5896,80144.3906,73400.5313,-2948.7314,349.695313
1421.9285,959.9180,2277.8215,2506.9717,78433.8750,85578.3672,105848.1563,64544.0781,3426.3210,3338.4565,3459.6477,3507.4133,80799.3828,70511.1484,74588.9766,84059.2500,3493.0188,3528.3123,3606.6550,79296.4766,73412.2656,-2807.9824,349.699310
-2160.7878,-2410.6133,5177.1108,3461.2568,78394.0703,85414.7266,105891.4766,64389.6719,3592.6182,3131.9709,3454.4619,3407.3223,80969.9297,69686.5469,74783.3047,83534.9219,3967.5461,3637.3887,3770.9404,78629.4766,73409.9688,-2719.1121,349.703308
205.9490,8.9854,3555.4023,2788.3577,78421.9844,85500.9609,105837.6484,64447.4297,3448.3823,3220.6179,3476.4114,3454.9536,80851.8906,70252.3828,74637.9453,83827.4219,3690.4741,3546.2830,3619.0378,79135.6797,73397.8281,-2836.6597,349.707306
3750.6226,3913.0303,-1596.4509,-285.3871,78473.5781,85685.6094,105762.7031,64614.7773,2987.4670,3447.4436,3502.0266,3547.0876,80630.5625,71329.8203,74373.4609,84461.8750,2100.1475,3375.5156,3311.9473,80042.9375,73389.2266,-2972.5808,349.711304
3966.5405,4122.8687,-2380.4382,-433.1321,78466.5313,85711.4063,105756.2266,64661.2695,2950.8547,3492.7505,3472.6340,3557.2800,80587.2188,71487.7813,74335.0859,84583.9609,1770.1910,3364.7644,3317.7363,80121.4531,73395.2813,-2935.4321,349.715302
1407.3999,923.4176,2352.0740,2598.1890,78428.4453,85558.0234,105839.9531,64536.3008,3425.8293,3323.9502,3452.4727,3479.2947,80797.6172,70523.4609,74588.1953,84041.7969,3517.1362,3529.6755,3611.5947,79272.4297,73408.5391,-2805.9038,349.719299
-2187.9451,-2442.4421,5193.6064,3485.3745,78437.2109,85452.1875,105918.6563,64416.0703,3616.7134,3160.5588,3471.4045,3419.2134,80989.2188,69697.5391,74804.4453,83554.8203,3986.2993,3651.4702,3797.4719,78613.4063,73408.2422,-2745.8223,349.723297
261.2025,-0.3800,3595.3450,2953.2017,78479.4766,85561.5391,105872.2266,64480.2422,3473.0139,3240.6899,3491.7000,3482.8264,80869.9688,70245.2500,74655.2500,83855.8984,3736.5632,3573.7979,3658.7122,79129.4844,73397.2266,-2836.8608,349.727295
3750.6450,3910.8623,-1544.7067,64.4177,78522.7500,85745.9375,105790.7813,64639.0742,3090.4192,3448.1812,3507.6814,3579.1177,80641.1563,71298.3750,74381.2578,84482.9766,2353.4597,3413.4912,3412.8430,80039.5156,73388.6641,-2961.4944,349.731293
3965.9370,4128.8813,-2415.3071,-304.0284,78530.3047,85789.4141,105798.8281,64698.7070,2980.8955,3525.5630,3493.8457,3610.5667,80610.2422,71456.4688,74355.2656,84620.2813,1935.1469,3399.9907,3396.9287,80118.2813,73395.0313,-2955.3923,349.735291
3965.9370,4128.8813,-2415.3071,-304.0284,78530.3047,85789.4141,105798.8281,64698.7070,2980.8955,3525.5630,3493.8457,3610.5667,80610.2422,71456.4688,74355.2656,84620.2813,1935.1469,3399.9907,3396.9287,80118.2813,73395.0313,-2955.3923,349.739288
1395.8663,937.4992,2316.4900,2622.6418,78485.6875,85628.7500,105877.8594,64568.3555,3445.4319,3346.8831,3469.7283,3529.3179,80816.7734,70489.0625,74601.9609,84073.1563,3566.6453,3556.9224,3645.5471,79271.8438,73409.2031,-2805.1663,349.743286
-2204.9548,-2418.2798,5185.1128,3490.6494,78451.0000,85480.7109,105925.9219,64419.2656,3614.5452,3149.2041,3468.9236,3445.8118,80989.3516,69659.0781,74796.8906,83560.3828,3995.2178,3662.5791,3809.8101,78615.1953,73408.8047,-2726.8679,349.747284
187.6205,52.9513,3542.9302,2901.3235,78485.2188,85578.6328,105877.1953,64483.4844,3476.2102,3251.8882,3496.4832,3505.4910,80873.8203,70226.9219,74652.7656,83864.8125,3731.5120,3573.8875,3656.3877,79129.0625,73396.6641,-2846.1145,349.751282
3754.4001,3930.8447,-1609.8619,25.6151,78528.7813,85754.4531,105795.0703,64642.5625,3115.4084,3461.1453,3514.3201,3590.2935,80646.8984,71294.2578,74380.4375,84488.9688,2366.3345,3412.8430,3413.8936,80033.2813,73386.3438,-2968.5798,349.755280
3964.3948,4119.5605,-2371.5422,-270.4337,78523.5781,85776.4063,105789.8672,64688.9648,3026.4485,3506.1838,3488.6377,3597.3792,80607.8984,71454.5469,74345.2266,84607.6094,1960.2032,3398.8955,3408.1938,80105.0938,73391.0313,-2947.5022,349.759277
1440.7487,933.0512,2397.4033,2678.1411,78486.2266,85613.2578,105873.0547,64563.5273,3447.8459,3344.2231,3473.2598,3510.9673,80821.1328,70503.2344,74600.0156,84062.8047,3561.2585,3553.5024,3641.3672,79250.5000,73400.7813,-2814.5540,349.763275
-2176.1882,-2416.4470,5196.0874,3487.8555,78454.6016,85460.5078,105922.3203,64417.0547,3615.9756,3155.3286,3475.5620,3420.3979,80995.5234,69687.9297,74798.0781,83550.9063,3994.1001,3657.4829,3802.7693,78591.1484,73398.1406,-2734.7805,349.767273
261.5825,54.1136,3564.1643,2879.7092,78475.8516,85542.6016,105860.9844,64469.9375,3461.0110,3228.9553,3490.5376,3463.7603,80869.4766,70256.6484,74642.3047,83842.2656,3710.9482,3567.8076,3647.9163,79107.7813,73385.4453,-2834.1787,349.771271
3772.5049,3934.7786,-1581.3412,-133.0376,78527.3516,85726.1563,105786.3516,64636.5039,3057.4280,3452.2493,3516.6892,3556.4307,80650.1875,71330.0938,74378.4219,84474.8203,2221.5845,3408.1716,3400.4377,80013.6563,73377.5313,-2972.4915,349.775269
3981.3149,4137.4863,-2360.5901,-303.5590,78530.0313,85758.2500,105789.7266,64690.3711,2945.3562,3514.5881,3500.0371,3577.6873,80619.8750,71487.5625,74351.5078,84601.0781,1906.2461,3398.8286,3392.1453,80088.8906,73386.3828,-2950.9666,349.779266
1479.4172,959.0239,2427.9583,2692.1111,78483.5859,85594.0781,105866.8906,64556.9531,3436.8936,3331.2144,3475.8079,3493.4434,80827.4375,70515.4609,74598.7188,84047.8281,3577.6873,3555.9165,3641.0544,79239.3672,73399.7500,-2802.7747,349.783264
-2167.7393,-2426.9746,5206.3691,3494.9409,78459.2656,85459.6328,105924.1563,64418.2617,3619.0603,3155.9097,3485.2402,3423.3931,81007.5703,69692.7109,74801.6328,83548.6719,4003.8901,3665.3059,3806.5244,78589.6484,73401.1563,-2738.4685,349.787262
236.3473,42.0883,3576.9272,2937.8462,78487.0547,85559.0313,105869.9531,64478.1406,3471.3599,3247.7307,3506.9438,3488.0566,80885.7500,70252.1563,74648.5391,83852.7656,3727.5779,3573.9990,3650.6655,79113.1250,73388.9766,-2843.2537,349.791260
3775.6118,3946.6028,-1568.4889,45.3964,78526.3047,85739.7500,105785.4844,64633.6641,3104.2102,3449.7458,3521.6289,3582.4480,80656.5156,71298.3984,74372.1406,84474.1250,2328.4036,3411.0103,3407.8809,80017.8359,73377.3984,-2965.2717,349.795258
3972.8213,4128.3223,-2350.1069,-185.3407,78529.4531,85777.7031,105790.3125,64687.5781,3021.4192,3515.2141,3505.4688,3610.5442,80626.6719,71440.9531,74346.0313,84599.9844,1906.4473,3399.6780,3405.0869,80087.5938,73383.5469,-2952.7996,349.799255
1433.3950,882.8044,2454.3108,2750.6279,78488.0156,85618.4844,105871.8984,64558.7852,3447.2200,3344.9607,3485.6650,3530.9944,80837.8984,70469.0547,74598.0313,84051.6328,3542.3267,3556.4529,3640.5403,79235.1641,73396.0391,-2810.2847,349.803253
-2172.5225,-2430.9980,5203.6646,3495.0527,78451.6953,85468.6406,105916.9531,64409.2539,3611.2148,3147.3267,3481.8652,3442.7051,81006.2500,69647.0078,74790.1406,83540.9141,3995.6648,3659.3604,3800.4446,78582.1563,73393.5391,-2734.0876,349.807251
228.2784,42.8706,3569.2605,2897.8142,78484.4609,85564.7734,105865.7500,64474.2070,3464.8333,3245.9426,3507.6592,3499.4561,80887.4766,70229.5156,74642.8438,83849.9766,3708.6460,3571.1829,3646.1282,79107.2031,73383.5234,-2852.9094,349.811249
3972.3518,4122.5332,-2345.4355,-253.6923,78527.3047,85761.4922,105783.3594,64682.2344,2995.2231,3508.6873,3505.7146,3592.7522,80630.0703,71451.3281,74344.7188,84589.1484,1933.7834,3399.2979,3398.2251,80071.1875,73378.6094,-2951.9949,349.815247
1349.8888,865.7725,2471.3652,2699.9565,78485.9375,85594.9063,105864.0938,64552.4375,3445.2083,3338.7024,3486.3804,3503.1218,80841.8125,70491.4297,74597.7813,84037.5469,3567.5396,3553.8379,3637.8357,79212.6094,73388.4375,-2819.2700,349.819244
-2205.2007,-2437.3906,5218.7520,3498.7407,78460.2969,85451.1406,105918.2734,64412.6523,3618.6580,3162.4141,3493.7788,3421.4707,81018.7266,69688.7578,74797.6719,83538.1875,3999.5540,3658.8464,3799.1260,78564.9297,73388.5547,-2744.4587,349.823242
355.2363,130.6683,3559.8728,2922.2446,78482.6953,85539.1172,105857.8828,64468.3086,3463.5591,3239.0359,3509.1790,3470.9353,80891.4063,70266.4844,74638.5938,83839.3750,3720.1794,3569.0146,3643.4014,79094.7266,73378.3359,-2840.8618,349.827240
3808.0889,3973.4470,-1595.2662,-84.1990,78531.3281,85723.6563,105782.3750,64632.6367,2994.9773,3458.0605,3532.9165,3566.1982,80671.3125,71328.4609,74372.0938,84468.9844,2163.8499,3400.1250,3333.4719,79997.5859,73369.3516,-2977.9675,349.831238
1410.9315,910.7441,2540.8345,2761.2898,78481.5547,85588.5625,105860.8750,64546.2031,3447.5552,3331.5498,3484.6145,3501.4453,80845.6563,70477.7109,74590.3594,84026.7344,3550.9768,3553.8826,3634.5054,79197.8125,73384.3984,-2801.0310,349.835236
-2163.7383,-2411.4402,5215.7349,3497.2656,78454.8203,85454.1563,105914.7656,64406.6836,3615.4170,3152.4900,3490.5154,3430.0540,81020.1719,69661.8047,74788.5547,83530.4141,3998.8611,3661.4167,3798.2542,78555.2891,73384.5078,-2739.7427,349.839233
387.5122,203.1550,3575.0942,2932.4370,78488.7734,85559.8594,105864.4531,64474.1172,3470.7117,3258.6160,3517.8516,3498.7854,80899.4531,70241.2266,74638.2578,83847.6250,3714.3457,3569.9087,3641.4343,79089.1875,73373.2656,-2856.5081,349.843231
3805.5186,3982.1418,-1566.6560,39.4061,78527.2891,85736.1250,105779.5859,64629.1719,3052.4883,3457.0325,3529.9885,3586.0466,80669.7656,71289.8125,74363.8281,84466.1875,2240.3823,3409.0657,3401.6226,79990.6563,73364.8594,-2970.2561,349.847229
3970.5862,4128.0093,-2355.6726,-234.9615,78527.0625,85766.1406,105782.1094,64678.7695,2985.9023,3513.7834,3508.3743,3604.2856,80638.6328,71425.6484,74339.6172,84581.4531,1937.7621,3399.4768,3401.9800,80046.9844,73371.0938,-2958.6108,349.851227
1330.4875,884.1009,2462.2234,2664.1938,78491.5703,85608.0469,105868.6328,64553.9609,3456.9878,3354.3262,3493.4658,3525.0264,80853.9922,70459.0625,74598.8516,84033.9766,3574.0437,3557.4587,3640.3613,79186.9531,73382.8750,-2827.1379,349.855225
-2209.6711,-2429.7686,5218.7300,3501.8477,78456.5625,85456.8828,105913.4688,64406.3945,3617.6296,3158.3684,3489.6436,3436.2676,81019.6875,69655.3438,74789.2500,83529.2266,4000.7610,3662.6462,3800.8247,78545.1016,73382.8047,-2740.2791,349.859222
366.6357,144.8169,3521.8748,2873.5403,78480.0156,85543.8984,105852.4453,64464.0586,3462.0840,3242.6567,3504.1946,3483.4299,80888.9297,70246.6797,74629.8828,83836.2969,3701.3816,3568.1877,3641.6130,79077.1797,73370.1797,-2847.9697,349.863220
3812.6487,3976.1516,-1637.2876,-147.9909,78534.0391,85727.7656,105781.0313,64632.8594,2990.9316,3473.4609,3531.5754,3576.6143,80671.8047,71319.2734,74369.7500,84469.3828,2091.8550,3396.3699,3329.0239,79976.2344,73362.4922,-2988.8528,349.867218
3976.8445,4121.6841,-2320.0886,-215.9402,78530.3047,85749.3594,105781.7031,64679.2617,2946.9434,3523.3501,3507.0110,3587.6113,80639.6563,71455.7734,74343.2188,84578.1953,1885.5708,3384.6575,3293.8201,80028.8281,73369.6641,-2956.2639,349.871216
1389.1162,866.8230,2531.3125,2738.5803,78482.4688,85579.9766,105858.8438,64543.5664,3455.5349,3335.7520,3480.7476,3498.1819,80846.7500,70477.1953,74591.8359,84016.8750,3589.1760,3559.8953,3643.7588,79168.2656,73381.6484,-2808.7649,349.875214
431.2545,232.9275,3523.7971,2926.4243,78484.4375,85544.9766,105856.4297,64468.4414,3469.2366,3257.6772,3506.8545,3485.5757,80891.0469,70256.2656,74629.6797,83839.8516,3714.8374,3570.3557,3644.2283,79066.0781,73367.3672,-2851.0542,349.879211
3813.0732,3985.8523,-1622.7142,44.7035,78524.4219,85725.8203,105774.4844,64625.3945,3103.6289,3459.0442,3519.2598,3575.4519,80662.4844,71298.4609,74356.5625,84459.1016,2267.0928,3411.1221,3406.3833,79962.7813,73358.5781,-2968.0657,349.883209
3968.2839,4130.4458,-2340.4512,-135.8763,78529.8125,85764.0000,105784.1641,64679.9102,3010.2881,3526.5239,3503.5017,3603.0564,80637.9609,71423.1641,74338.5234,84576.8516,1878.2841,3404.0811,3409.0210,80013.3828,73366.3828,-2956.9568,349.887207
1373.1570,937.8121,2489.7830,2725.5940,78485.2188,85601.0547,105864.1641,64546.7617,3453.0986,3348.0229,3480.2336,3520.2656,80847.5781,70436.9609,74589.9609,84018.4375,3571.8311,3561.3032,3645.9941,79150.5625,73377.8438,-2809.0776,349.891205
-2196.7070,-2418.4810,5209.3423,3499.9478,78449.1016,85454.4063,105907.5469,64399.0625,3615.7969,3150.6570,3475.7632,3435.5747,81010.2031,69631.2266,74775.9922,83516.4844,3996.3352,3663.8530,3802.4338,78513.9219,73375.2734,-2731.2937,349.895203
-2196.7070,-2418.4810,5209.3423,3499.9478,78449.1016,85454.4063,105907.5469,64399.0625,3615.7969,3150.6570,3475.7632,3435.5747,81010.2031,69631.2266,74775.9922,83516.4844,3996.3352,3663.8530,3802.4338,78513.9219,73375.2734,-2731.2937,349.899200
267.8633,86.8365,3493.9575,2899.5352,78480.8203,85553.1563,105853.7656,64465.8711,3467.5378,3254.5032,3497.9585,3492.7058,80883.2969,70231.2578,74621.2500,83837.0547,3687.3447,3568.5676,3641.9038,79052.1016,73362.9609,-2849.1321,349.903198
3778.3389,3955.0515,-1647.5917,-19.3566,78523.8203,85725.9531,105773.2109,64624.8828,3105.5737,3466.2861,3513.4258,3574.5579,80656.8906,71292.0078,74352.3594,84457.9844,2173.5283,3405.8916,3402.4719,79943.6719,73352.7891,-2970.5244,349.907196
3778.3389,3955.0515,-1647.5917,-19.3566,78523.8203,85725.9531,105773.2109,64624.8828,3105.5737,3466.2861,3513.4258,3574.5579,80656.8906,71292.0078,74352.3594,84457.9844,2173.5283,3405.8916,3402.4719,79943.6719,73352.7891,-2970.5244,349.911194
3940.7019,4085.5859,-2302.6543,-161.9607,78518.2109,85743.0547,105772.2969,64668.6016,3021.3076,3509.0227,3486.0449,3579.7659,80624.2813,71423.7891,74327.2578,84560.4688,1924.7310,3399.4768,3406.9199,79987.1250,73359.8516,-2945.3115,349.915192
3940.7019,4085.5859,-2302.6543,-161.9607,78518.2109,85743.0547,105772.2969,64668.6016,3021.3076,3509.0227,3486.0449,3579.7659,80624.2813,71423.7891,74327.2578,84560.4688,1924.7310,3399.4768,3406.9199,79987.1250,73359.8516,-2945.3115,349.919189
1275.0775,720.5308,2544.0308,2748.6609,78478.7188,85576.4219,105856.1406,64539.2305,3454.3503,3339.6187,3467.4260,3491.4319,80838.5703,70455.2188,74585.1563,84004.5547,3576.2566,3557.7942,3645.8823,79121.0859,73371.7422,-2811.0222,349.923187
-2206.4746,-2464.6375,5208.2690,3494.8293,78448.3828,85431.0234,105903.7656,64396.6914,3616.2439,3157.9885,3469.4600,3408.6633,81005.3594,69665.0000,74775.7266,83509.9844,3990.8367,3658.0417,3801.0928,78486.4922,73369.1094,-2735.3169,349.927185
340.8864,130.5789,3466.1296,2881.9668,78472.5703,85525.5469,105843.0156,64457.1758,3456.3396,3243.9534,3484.8157,3462.7097,80872.3203,70261.7891,74612.9844,83825.5234,3686.1155,3564.0750,3640.1155,79030.4219,73357.2813,-2842.5830,349.931183
340.8864,130.5789,3466.1296,2881.9668,78472.5703,85525.5469,105843.0156,64457.1758,3456.3396,3243.9534,3484.8157,3462.7097,80872.3203,70261.7891,74612.9844,83825.5234,3686.1155,3564.0750,3640.1155,79030.4219,73357.2813,-2842.5830,349.935181
3794.5215,3959.6560,-1677.3419,-127.7626,78521.6328,85711.9375,105769.2813,64622.3125,3043.8828,3464.8779,3505.9380,3557.9282,80651.5313,71313.9297,74349.7031,84453.3125,2081.0815,3405.2881,3382.0200,79924.1094,73349.3281,-2976.6711,349.939178
3939.9866,4080.7356,-2302.4756,-177.7634,78520.8047,85742.4922,105774.8906,64670.6563,3001.0791,3520.5784,3483.4746,3578.6929,80623.6094,71425.6250,74329.1797,84559.8203,1778.7294,3399.7227,3398.3145,79964.3203,73356.1875,-2949.7373,349.943176
3939.9866,4080.7356,-2302.4756,-177.7634,78520.8047,85742.4922,105774.8906,64670.6563,3001.0791,3520.5784,3483.4746,3578.6929,80623.6094,71425.6250,74329.1797,84559.8203,1778.7294,3399.7227,3398.3145,79964.3203,73356.1875,-2949.7373,349.947174
1250.4236,741.5414,2552.0549,2772.2644,78469.6641,85575.4141,105849.8594,64530.9141,3445.4766,3329.8286,3454.4172,3492.3035,80829.3359,70425.0938,74576.5703,83992.4688,3550.0381,3556.1848,3645.6365,79097.3906,73365.8203,-2796.6948,349.951172
-2247.2666,-2466.4031,5203.3296,3498.5173,78444.8281,85445.4844,105903.2969,64394.6367,3616.1321,3156.8037,3462.7097,3424.9578,81000.6172,69626.3281,74771.1875,83507.2344,3988.2439,3659.1816,3802.4785,78471.9688,73366.4922,-2735.9875,349.955170
-2247.2666,-2466.4031,5203.3296,3498.5173,78444.8281,85445.4844,105903.2969,64394.6367,3616.1321,3156.8037,3462.7097,3424.9578,81000.6172,69626.3281,74771.1875,83507.2344,3988.2439,3659.1816,3802.4785,78471.9688,73366.4922,-2735.9875,349.959167
229.2395,65.8035,3448.2258,2901.2117,78475.8125,85550.2500,105848.6250,64462.2070,3464.0508,3259.1973,3484.9944,3488.9285,80871.6016,70223.2578,74612.6016,83832.1563,3684.9084,3564.4548,3641.0095,79019.6484,73354.8672,-2847.1875,349.963165
229.2395,65.8035,3448.2258,2901.2117,78475.8125,85550.2500,105848.6250,64462.2070,3464.0508,3259.1973,3484.9944,3488.9285,80871.6016,70223.2578,74612.6016,83832.1563,3684.9084,3564.4548,3641.0095,79019.6484,73354.8672,-2847.1875,349.967163
3757.2610,3938.6008,-1688.4060,-36.2545,78516.8906,85727.3672,105768.0703,64620.1445,3102.9360,3461.3240,3498.0703,3573.8650,80644.9531,71270.2813,74342.7969,84450.2969,2156.3621,3406.2493,3404.9753,79911.4609,73347.2266,-2967.6858,349.971161
3757.2610,3938.6008,-1688.4060,-36.2545,78516.8906,85727.3672,105768.0703,64620.1445,3102.9360,3461.3240,3498.0703,3573.8650,80644.9531,71270.2813,74342.7969,84450.2969,2156.3621,3406.2493,3404.9753,79911.4609,73347.2266,-2967.6858,349.975159
3920.5405,4067.2573,-2267.4949,-148.9297,78519.4609,85755.4375,105776.1875,64670.7695,3066.5251,3519.9749,3479.3618,3590.1370,80621.0391,71392.6563,74326.7656,84557.2266,1891.2034,3401.8013,3412.3960,79949.0781,73355.7656,-2949.3796,349.979156
1220.0699,676.6096,2609.1638,2780.4004,78478.1094,85587.6641,105858.5938,64538.8711,3463.0227,3345.7654,3460.0498,3501.7583,80834.8125,70415.7734,74582.9844,83997.0000,3558.3752,3560.7668,3650.8892,79080.4219,73367.4297,-2804.8533,349.983154
1220.0699,676.6096,2609.1638,2780.4004,78478.1094,85587.6641,105858.5938,64538.8711,3463.0227,3345.7654,3460.0498,3501.7583,80834.8125,70415.7734,74582.9844,83997.0000,3558.3752,3560.7668,3650.8892,79080.4219,73367.4297,-2804.8533,349.987152
-2215.2813,-2469.6218,5200.4014,3493.7117,78443.8438,85437.8828,105901.7578,64393.3164,3616.8027,3152.4675,3457.8372,3412.8655,80997.3125,69633.3281,74768.2344,83501.5313,3989.2275,3661.8862,3804.8926,78451.9141,73365.7578,-2732.2996,349.991150
344.5298,137.3068,3391.7654,2795.6221,78478.4063,85537.5547,105849.2734,64464.5313,3465.8838,3259.3982,3483.4299,3470.1306,80871.2031,70255.7344,74612.5547,83831.2656,3680.0359,3568.3218,3644.0496,79001.4297,73355.3828,-2856.1282,349.995148
3789.8499,3958.8962,-1747.4817,-156.7751,78525.3203,85713.4844,105773.1875,64627.3398,3109.1724,3478.5796,3502.2725,3554.1509,80648.4922,71316.0078,74347.7109,84454.0938,2116.7324,3408.2163,3392.3464,79886.0469,73344.1641,-2977.4534,349.999146
3918.7747,4053.9580,-2284.0352,-199.2881,78515.7109,85727.7188,105771.0000,64666.3008,3083.7358,3513.5601,3470.6223,3557.6599,80615.2969,71426.7422,74322.5000,84546.2266,1921.7358,3402.4048,3407.5457,79916.1094,73350.1719,-2941.2437,350.003143
-2269.0596,-2476.0591,5202.5024,3493.5999,78448.3828,85429.1016,105905.3125,64397.4063,3622.8376,3168.5608,3458.7312,3403.5671,80997.6641,69651.7891,74771.1641,83501.2891,3986.8582,3661.0144,3805.6301,78423.3281,73359.7656,-2739.6309,350.007141
317.8418,138.2008,3412.9324,2872.0649,78466.8672,85524.9922,105838.4766,64454.2695,3457.0771,3248.4460,3467.7612,3458.1277,80855.8672,70244.0625,74599.3281,83818.4609,3681.0193,3561.4822,3639.2886,78973.9375,73344.6953,-2834.5139,350.011139
3768.2581,3943.1382,-1713.7529,-142.5818,78513.4531,85712.9922,105763.8906,64617.5508,3042.8323,3465.2803,3485.6204,3553.7485,80633.5547,71283.2188,74335.6406,84443.0781,2054.7734,3402.5613,3373.1912,79863.2266,73337.0547,-2967.4399,350.015137
3901.7427,4044.7493,-2264.1646,-222.1987,78517.9688,85749.0000,105775.8516,64669.8750,2982.3484,3530.7039,3468.7446,3580.0342,80613.0859,71385.4375,74323.8359,84549.2891,1773.2085,3398.7837,3352.3816,79894.6953,73346.1484,-2949.3572,350.019135
1105.0479,647.5524,2617.6797,2779.9534,78466.3359,85579.0391,105850.4375,64528.3203,3457.7700,3333.3826,3439.6650,3491.1189,80819.8359,70381.3047,74571.8516,83976.9531,3559.5376,3557.9058,3648.6763,79024.1641,73357.3906,-2790.1235,350.023132
-2275.8770,-2458.0884,5190.3208,3491.0964,78438.9766,85444.5469,105899.6094,64390.1641,3616.1992,3155.3062,3445.4319,3418.2075,80986.4688,69598.1875,74760.7969,83494.1094,3981.5833,3659.8745,3803.9985,78405.0234,73356.1016,-2730.1985,350.027130
329.0177,209.8829,3344.0667,2801.9922,78474.5391,85550.2734,105847.1328,64463.0117,3466.4873,3270.2390,3472.5894,3481.5969,80858.0547,70219.7656,74602.8359,83830.0547,3670.6257,3561.3704,3638.7075,78959.4141,73342.3750,-2854.2954,350.031128
3764.0337,3950.8718,-1779.7352,-152.7071,78511.8438,85717.4141,105763.1094,64617.0117,3127.1431,3468.1860,3481.2842,3556.5647,80628.6172,71269.0703,74331.0781,84442.1641,2123.7957,3400.5720,3401.8906,79843.4688,73333.1875,-2963.9976,350.035126
3889.2927,4029.8630,-2256.8333,-169.8956,78505.9375,85731.3203,105765.0547,64658.7422,3088.8323,3508.8438,3454.0149,3559.8728,80601.0156,71380.4922,74311.8594,84533.2422,1937.0021,3397.0403,3411.1890,79867.1172,73340.3438,-2932.5935,350.039124
-2258.7554,-2457.4402,5189.6279,3479.8982,78437.9922,85418.8438,105896.0313,64387.8398,3614.9028,3156.3792,3444.2026,3390.2454,80983.8125,69633.2578,74758.4688,83485.3047,3980.1304,3656.9241,3801.7634,78376.6797,73349.1875,-2725.3035,350.043121
361.6736,179.9986,3355.7791,2794.6162,78463.9844,85515.4453,105834.4766,64452.3945,3453.8809,3246.2107,3461.3464,3443.7778,80848.1797,70254.6406,74592.0391,83813.3828,3652.9009,3559.4482,3637.6570,78937.9297,73338.7109,-2834.8494,350.047119
3782.6304,3956.5715,-1765.6984,-267.9974,78516.5313,85702.2422,105764.6719,64620.8125,3074.6836,3474.3103,3486.0674,3538.5269,80632.3750,71307.5625,74334.5234,84441.8281,1983.1138,3401.5107,3382.4446,79824.7578,73332.1172,-2971.9102,350.051117
3894.4561,4031.7852,-2254.7544,-203.4009,78512.3125,85724.6328,105769.0078,64663.6602,2997.2346,3520.5562,3461.3687,3553.1003,80607.1406,71400.8359,74317.1328,84533.2656,1855.2617,3398.4263,3367.8267,79846.3281,73338.5313,-2937.3545,350.055115
1121.8787,637.6505,2622.7759,2762.9885,78461.6172,85554.1172,105844.4688,64521.7266,3454.9536,3323.5254,3434.6360,3465.5037,80816.2188,70393.6875,74567.0234,83958.8750,3586.8738,3557.1907,3648.9893,78974.2969,73349.3672,-2785.5637,350.059113
-2267.0479,-2455.7637,5189.2700,3483.8770,78438.2109,85426.7109,105896.1719,64387.8398,3614.7688,3156.1333,3445.6106,3402.2708,80984.3672,69614.3047,74756.3438,83483.9375,3979.6833,3657.6616,3801.6069,78364.1875,73347.9609,-2728.8574,350.063110
3885.3813,4018.8210,-2246.4397,-138.6255,78509.5156,85739.3438,105769.0313,64662.2305,3094.8000,3517.5164,3460.8992,3575.3403,80604.9453,71360.1563,74311.4141,84530.5859,1819.1637,3399.8120,3412.9771,79832.6250,73335.4922,-2937.4438,350.067108
-2268.2996,-2458.7366,5185.6714,3481.3064,78432.1797,85427.9844,105891.6797,64382.9219,3609.2253,3146.7678,3441.2297,3407.9255,80979.5625,69595.7969,74748.0547,83478.4219,3979.3479,3657.7063,3801.1152,78352.1172,73345.7969,-2722.3083,350.071106
294.6854,146.4710,3325.9170,2835.7209,78464.2969,85530.1563,105834.2734,64453.7344,3450.2598,3254.9504,3464.7214,3467.5378,80846.1016,70229.9375,74584.2813,83817.2734,3645.0554,3556.4307,3632.4490,78917.9297,73332.3828,-2842.0466,350.075104
3761.8879,3944.3005,-1784.4514,-168.8004,78510.6094,85706.1094,105758.9063,64615.9844,3119.4094,3469.1470,3483.0945,3551.7368,80625.5547,71281.2266,74322.2969,84436.2813,2062.4177,3398.7615,3398.0908,79799.6172,73324.5156,-2963.2600,350.079102
3873.2441,4007.5334,-2231.9780,-189.3640,78502.8516,85719.1641,105760.2891,64654.5859,3073.8118,3505.4910,3454.7749,3555.8047,80599.4688,71373.6797,74304.9766,84518.3125,1905.7767,3396.7275,3410.5854,79811.6641,73329.8359,-2932.1912,350.083099
991.0540,549.0259,2660.3716,2765.0896,78462.0156,85551.1641,105843.7344,64520.6992,3456.8984,3329.0239,3438.8828,3469.7729,80817.8047,70380.8594,74565.7266,83950.1328,3577.4412,3556.6765,3651.0679,78936.1406,73340.8750,-2796.4490,350.087097
-2303.8389,-2481.2893,5195.6182,3482.9380,78437.0938,85416.5391,105892.3047,64385.6289,3613.0251,3157.0496,3448.1140,3397.9343,80983.4766,69618.1250,74752.7891,83475.4922,3981.4714,3656.6111,3801.1599,78333.3359,73341.2813,-2729.7290,350.091095
363.5064,191.5544,3312.3271,2795.7114,78460.0078,85514.3281,105826.5625,64448.7031,3444.2695,3246.3003,3462.2405,3452.7632,80841.5625,70243.0781,74579.2734,83807.7266,3651.4255,3554.1731,3630.4148,78902.2344,73327.1328,-2836.6375,350.095093
3879.7932,4014.1272,-2234.0791,-188.5593,78504.7344,85719.6719,105760.8750,64655.6133,3044.6204,3513.9624,3459.4912,3559.6716,80601.7031,71369.5391,74305.1719,84516.5000,1770.2804,3392.5701,3390.1560,79794.7891,73325.2969,-2935.5439,350.099091
1050.2413,565.1862,2663.5679,2788.6482,78452.2266,85545.7578,105835.0391,64510.8438,3449.5222,3316.1716,3431.5737,3468.8564,80810.7422,70357.4141,74554.1953,83937.0078,3545.0759,3551.2227,3644.8989,78915.9375,73333.5938,-2781.1157,350.103088
-2262.3765,-2475.2769,5189.0469,3480.4570,78430.1641,85419.2188,105887.0938,64379.2344,3607.1467,3149.2490,3443.5320,3405.2434,80978.1953,69594.6563,74741.6641,83469.0078,3975.9058,3652.4536,3794.8120,78317.6250,73334.4609,-2728.8350,350.107086
408.8134,204.2726,3322.4973,2860.3079,78463.4453,85528.6328,105831.1250,64452.7969,3448.6057,3261.4324,3468.6331,3473.3938,80843.8906,70228.3047,74575.2734,83814.7031,3651.2468,3551.8037,3626.1011,78891.8906,73321.6953,-2842.5830,350.111084
3873.9148,4012.3838,-2257.6379,-218.1307,78504.0859,85726.4922,105762.2109,64655.6133,3070.8613,3512.6213,3461.1899,3572.8145,80602.6250,71352.2656,74300.9766,84515.3203,1934.7893,3397.3308,3410.1384,79782.6953,73323.8438,-2939.5671,350.115082
984.9520,553.8315,2632.1189,2696.7603,78463.2891,85557.9141,105845.8750,64521.0117,3463.5591,3337.6519,3445.4543,3486.7827,80821.3984,70355.1094,74562.1094,83945.2109,3582.0234,3556.7437,3649.7268,78903.9609,73334.3750,-2798.0359,350.119080
-2293.5571,-2464.8608,5188.6890,3476.8362,78427.4375,85412.6094,105883.1797,64376.2422,3604.3975,3144.3540,3442.6379,3402.4495,80975.8750,69593.2734,74737.5703,83462.7266,3977.2468,3653.2361,3795.5496,78304.0625,73331.8906,-2722.4871,350.123077
410.6686,257.5591,3239.2146,2708.0032,78459.0938,85516.8984,105823.7500,64448.3711,3442.4368,3251.3965,3465.1685,3461.5923,80839.1250,70238.0938,74570.7344,83807.5469,3646.0835,3550.5969,3625.4304,78880.3984,73319.2656,-2846.9863,350.127075
3794.2756,3977.8281,-1868.8964,-348.9107,78506.7188,85694.9766,105749.7422,64611.6250,3033.9587,3472.7456,3485.1509,3547.8252,80619.7891,71284.4688,74310.8750,84426.6719,1999.1399,3388.3008,3364.9656,79754.2656,73307.0547,-2972.6924,350.131073
3873.2219,4007.1758,-2199.0764,-162.8325,78496.5938,85705.1484,105750.7734,64646.7422,3055.5281,3502.7642,3454.8196,3550.8428,80595.1328,71362.1016,74294.9141,84500.2500,1924.8875,3390.1113,3385.9763,79758.3750,73314.4375,-2927.4749,350.135071
-2259.6719,-2471.6782,5199.0825,3484.4358,78433.4063,85409.7266,105885.7500,64380.2422,3610.9019,3160.8494,3450.7292,3401.4436,80980.5938,69608.6953,74742.4453,83464.3359,3977.0681,3650.7102,3793.6721,78286.5547,73326.0313,-2739.7874,350.139069
548.8694,316.5230,3280.5654,2796.1584,78456.4766,85510.5313,105819.7500,64445.1719,3440.7156,3252.1787,3464.9897,3460.4971,80836.2188,70241.2969,74564.7031,83803.7500,3651.1572,3547.8923,3622.1895,78867.4375,73312.9375,-2834.5139,350.143066
3807.2620,3988.7134,-1817.1073,-214.7779,78497.2656,85688.4453,105741.7188,64602.8633,3051.1919,3455.6914,3477.9536,3548.0488,80612.9531,71272.1797,74298.5156,84417.1953,2054.7063,3390.4912,3385.8867,79746.1016,73304.9141,-2954.8782,350.147064
3879.5027,4014.7754,-2242.7964,-213.5486,78502.2266,85718.0859,105758.0313,64652.2383,2985.7905,3517.8962,3463.9614,3572.3674,80601.9766,71348.5313,74296.4844,84505.8828,1870.9528,3393.5535,3393.4863,79749.9922,73313.9219,-2940.3496,350.151062
1035.1093,567.8684,2664.9089,2722.8669,78455.4922,85547.8984,105837.9453,64512.0938,3452.6292,3326.6323,3442.5261,3486.4026,80817.2422,70335.4844,74552.3203,83927.7344,3590.6736,3555.7825,3647.7598,78869.9141,73325.1875,-2786.5696,350.155060
-2277.0840,-2458.6023,5188.8008,3478.1326,78422.6094,85411.1328,105878.0391,64371.0977,3601.2236,3140.0400,3442.7051,3410.6301,80972.5234,69575.8125,74727.4453,83453.5625,3975.7717,3651.8950,3792.9568,78277.5078,73322.8594,-2718.2402,350.159058
416.0330,287.8458,3223.3003,2733.6182,78457.6172,85522.4688,105821.1563,64447.3203,3441.7661,3258.7725,3468.7896,3477.1267,80836.3516,70224.7734,74560.2500,83807.2109,3641.5461,3546.3723,3619.2168,78859.8984,73308.7578,-2846.0251,350.163055
3804.7139,3996.4695,-1874.5514,-264.0411,78501.2031,85697.7266,105744.6250,64607.2891,3052.9575,3467.5601,3484.4805,3560.8787,80615.5859,71264.0625,74298.1797,84421.4844,2053.9241,3388.7256,3387.9431,79736.5859,73301.6016,-2964.7129,350.167053
3865.0188,3990.7698,-2197.7351,-134.9375,78492.8203,85708.1641,105747.8672,64643.1641,3021.4192,3498.5396,3455.9819,3564.1421,80594.7734,71336.3984,74286.7813,84492.4766,1920.4841,3392.3911,3405.5339,79734.1484,73309.9844,-2928.9949,350.171051
1005.7838,473.8123,2731.3608,2794.2808,78455.0234,85540.0078,105834.7500,64510.1953,3458.3960,3326.5430,3443.5320,3478.5125,80817.8516,70339.5703,74552.5859,83921.2734,3591.3887,3553.9719,3647.8494,78851.5625,73321.4297,-2796.1138,350.175049
-2269.4172,-2473.6228,5197.6968,3481.8428,78427.5547,85402.5469,105878.6250,64374.2070,3606.3420,3152.4006,3449.4104,3402.3601,80976.3672,69596.9844,74731.6953,83452.8516,3977.2246,3650.1516,3792.1746,78260.6484,73318.5000,-2729.9526,350.179047
472.0688,310.8904,3240.6453,2742.6931,78449.5938,85498.9922,105809.8906,64438.8477,3428.7798,3242.5227,3462.1509,3454.4172,80829.1797,70245.1406,74552.0313,83794.4297,3625.9221,3544.7183,3616.7134,78844.9453,73303.3906,-2836.7046,350.183044
3812.2239,3996.1565,-1855.7312,-347.3237,78497.1563,85678.6797,105737.4453,64602.3281,3008.7905,3461.4805,3482.2451,3543.7349,80611.8516,71285.6094,74293.3516,84412.9453,1932.0847,3386.9150,3372.0510,79719.6875,73294.6094,-2965.6741,350.187042
3877.5359,4002.9739,-2192.2366,-126.2874,78495.7031,85698.3047,105748.4219,64644.4609,2978.3699,3507.7932,3461.4133,3559.0459,80598.1094,71353.3828,74288.4375,84489.9297,1848.1763,3393.1064,3401.2871,79718.1641,73305.4922,-2930.7607,350.191040
1027.6661,523.5673,2742.4695,2814.5540,78447.2656,85526.8438,105827.5938,64502.1484,3446.7283,3312.7742,3438.5476,3471.6057,80813.9375,70335.3906,74545.1016,83908.3750,3594.5850,3555.0449,3649.1011,78836.8828,73318.1641,-2783.0378,350.195038
-2278.4919,-2476.5061,5195.3501,3481.4629,78421.8750,85400.8516,105873.8594,64368.9297,3602.0059,3145.9631,3446.6165,3407.1433,80973.3047,69583.4141,74724.2500,83446.6172,3975.6599,3648.9221,3790.6545,78250.2109,73314.4531,-2728.8350,350.199036
406.4218,259.9731,3241.1816,2779.8193,78452.2969,85512.9453,105812.7109,64442.0664,3435.4854,3255.0620,3468.1636,3476.1208,80831.3672,70228.0625,74549.6328,83800.0156,3635.0417,3544.0479,3616.3779,78840.3203,73299.9531,-2841.1748,350.203033
3797.9858,3990.9263,-1847.8634,-215.0014,78492.6641,85690.4609,105734.5234,64599.1094,3064.6252,3455.6243,3481.0159,3563.6055,80608.9453,71253.1797,74285.1250,84410.7344,2041.3177,3388.0996,3385.9763,79716.5313,73293.1094,-2957.0686,350.207031
3863.2976,3994.7036,-2170.2649,-97.9900,78493.3594,85713.0547,105747.6406,64642.8086,3038.2278,3506.1169,3462.5310,3580.7271,80597.5703,71316.6094,74283.3125,84487.8281,1872.9867,3392.3911,3405.6682,79709.8750,73302.2969,-2935.2534,350.211029
988.1483,449.6277,2780.8474,2835.9668,78451.1094,85543.3438,105831.3906,64505.4766,3456.8313,3324.0171,3445.8342,3493.9800,80818.1641,70307.4063,74545.4766,83910.5234,3569.7522,3555.0671,3648.5869,78826.7734,73314.7500,-2791.3752,350.215027
-2246.7749,-2473.9133,5195.7300,3481.6865,78419.2578,85404.3359,105870.3984,64366.2266,3599.9495,3139.8164,3446.8176,3414.6982,80971.7813,69567.7422,74718.7734,83442.1250,3977.0010,3650.2410,3790.7886,78243.8672,73312.9141,-2725.3704,350.219025
525.5565,355.8174,3243.3274,2730.7349,78452.8125,85510.5078,105810.8516,64442.3789,3431.1267,3253.4304,3471.7175,3475.8079,80832.2656,70236.9375,74547.2656,83799.7969,3623.9106,3545.7466,3615.4839,78837.5703,73300.2656,-2847.9922,350.223022
3831.9607,4021.9280,-1848.0869,-297.2558,78500.4844,85685.2109,105738.4141,64605.9492,3013.0374,3470.3093,3492.2588,3559.7834,80616.3047,71283.3516,74289.7969,84416.1172,1947.0157,3389.9773,3366.2173,79710.7656,73293.2422,-2970.1443,350.227020
3875.3677,4000.7163,-2178.9822,-153.6906,78490.1406,85690.3750,105741.5625,64638.7617,3013.4175,3499.0984,3462.8215,3559.3811,80596.8594,71345.5625,74279.7578,84478.2578,1902.5581,3393.0618,3398.4485,79695.0078,73298.8125,-2933.2639,350.231018
961.8402,473.2758,2777.6736,2793.8787,78429.6719,85502.1484,105814.6484,64490.7695,3450.4609,3315.1436,3442.8391,3466.8447,80813.1953,70333.8750,74538.1250,83889.8047,3583.3645,3546.8418,3636.5840,78806.6641,73309.1797,-2797.4773,350.235016
-2273.2617,-2466.2915,5205.6987,3474.2209,78374.2422,85346.1094,105842.6328,64342.3555,3590.9863,3145.8066,3446.3259,3393.0840,80964.0938,69591.8438,74708.8281,83416.1953,3954.5598,3630.1914,3759.0044,78225.9609,73307.2344,-2733.3723,350.239014
576.8091,405.8183,3216.9746,2718.0837,78393.7578,85448.2813,105772.8984,64408.7383,3410.4961,3238.8794,3459.9829,3453.0986,80814.7656,70243.9297,74526.1484,83765.9531,3588.5500,3521.7854,3581.9116,78823.8906,73294.5391,-2837.8892,350.243011
3844.0977,4033.5510,-1879.9381,-460.0883,78441.4766,85634.2891,105702.6250,64573.4258,2831.3176,3456.1831,3481.1724,3549.5017,80600.2969,71272.6016,74270.2188,84384.8984,1644.4625,3341.9880,3194.7571,79699.9688,73289.7344,-2971.9995,350.247009
3886.1411,4015.9377,-2121.8511,-251.8147,78441.6328,85658.3438,105717.0234,64616.2773,2849.8696,3509.3132,3463.3804,3571.2722,80590.6875,71321.7344,74270.4844,84457.8516,1527.6522,3333.1143,3165.5881,79685.6641,73297.7813,-2943.6128,350.251007
993.4232,514.7830,2863.7053,2829.5967,78386.8906,85481.7656,105790.9609,64467.3672,3439.2852,3304.1018,3434.7700,3479.5405,80801.8438,70289.1719,74522.7266,83866.5156,3527.4180,3532.8718,3614.2993,78797.3359,73307.0391,-2781.3840,350.255005
-2255.8274,-2439.1340,5203.4634,3478.2666,78362.0391,85357.6172,105836.7344,64336.2305,3587.8796,3137.0449,3443.4202,3415.4583,80959.3125,69551.6094,74700.1563,83411.3438,3954.0906,3631.3313,3759.6975,78223.4609,73305.8750,-2730.5562,350.259003
-2255.8274,-2439.1340,5203.4634,3478.2666,78362.0391,85357.6172,105836.7344,64336.2305,3587.8796,3137.0449,3443.4202,3415.4583,80959.3125,69551.6094,74700.1563,83411.3438,3954.0906,3631.3313,3759.6975,78223.4609,73305.8750,-2730.5562,350.263000
608.8615,495.3370,3226.9436,2723.0681,78399.6563,85475.3281,105781.1719,64418.1055,3423.3706,3261.7454,3472.8574,3488.4365,80821.5781,70221.6016,74530.1250,83779.7031,3587.4773,3525.6746,3585.4656,78827.0000,73294.7891,-2856.9775,350.266998
3850.8701,4052.8406,-1860.7156,-298.4181,78437.7891,85645.5781,105701.5781,64573.2695,2949.8491,3458.1499,3483.8323,3568.7688,80599.2500,71250.0469,74265.7656,84386.0547,1787.4690,3369.9946,3325.9619,79699.6797,73289.0000,-2964.3777,350.270996
3885.1577,4023.3809,-2177.9763,-123.4710,78433.9688,85658.3672,105711.9922,64611.6055,2963.4165,3499.5901,3461.6370,3576.8379,80587.7109,71306.1719,74264.3594,84451.3672,1775.9801,3376.4321,3343.2844,79680.0781,73297.3125,-2935.4993,350.274994
1014.6351,572.1376,2784.4907,2761.5803,78393.3281,85486.3438,105797.2188,64474.3438,3451.0869,3324.6655,3447.1531,3487.9895,80810.4063,70298.4453,74529.6094,83872.3281,3565.0137,3536.6716,3620.7366,78787.5703,73305.6094,-2801.6123,350.278992
-2235.4873,-2433.4790,5209.9678,3480.7476,78362.5547,85348.1016,105836.6016,64337.4609,3592.1711,3142.9011,3449.2764,3409.7139,80962.7344,69573.2188,74700.7813,83410.4297,3959.1196,3634.0583,3763.8994,78215.4375,73305.3594,-2729.9302,350.282990
690.3336,499.5391,3198.7134,2712.2053,78389.9141,85451.8594,105770.7500,64409.9023,3417.2017,3245.2944,3467.7837,3467.7390,80815.8125,70247.1250,74520.4688,83768.8828,3569.1936,3526.6357,3587.5889,78819.5313,73292.8906,-2841.8901,350.286987
3875.6582,4066.0281,-1891.9857,-381.2537,78438.9063,85631.6719,105700.4766,64574.7695,2915.2932,3469.2141,3490.3589,3557.5706,80601.9531,71283.4219,74265.6797,84385.8594,1655.7725,3350.7051,3236.5549,79686.8750,73283.0078,-2973.0947,350.290985
3890.1646,4014.6860,-2135.8208,-102.1698,78429.1641,85639.9453,105706.0703,64607.1328,2901.4128,3501.5125,3462.3745,3562.8457,80586.3516,71325.2656,74259.5547,84442.7188,1719.5867,3346.5254,3207.0281,79661.8359,73288.9297,-2930.5146,350.294983
3890.1646,4014.6860,-2135.8208,-102.1698,78429.1641,85639.9453,105706.0703,64607.1328,2901.4128,3501.5125,3462.3745,3562.8457,80586.3516,71325.2656,74259.5547,84442.7188,1719.5867,3346.5254,3207.0281,79661.8359,73288.9297,-2930.5146,350.298981
1029.2531,524.9531,2847.8579,2826.8921,78381.1719,85466.1406,105786.1953,64463.6563,3445.7002,3303.0513,3440.4697,3473.0811,80804.8828,70300.5000,74519.5547,83854.9375,3579.9893,3538.5046,3621.6306,78774.3359,73302.6563,-2783.5520,350.302979
-2232.2463,-2426.9971,5215.0640,3487.1179,78361.1641,85346.3125,105835.2344,64337.3711,3594.8979,3148.1089,3453.7019,3413.1782,80964.1875,69573.5781,74698.8125,83407.8750,3960.2820,3634.4382,3764.3464,78205.7578,73300.7969,-2736.4346,350.306976
716.3287,583.5146,3200.0320,2771.8621,78390.0703,85458.9844,105771.1094,64411.9805,3421.8508,3257.0962,3473.8857,3481.1946,80816.9297,70239.1484,74518.0078,83771.5156,3596.2390,3525.8311,3586.4043,78812.5156,73286.2500,-2845.9580,350.310974
716.3287,583.5146,3200.0320,2771.8621,78390.0703,85458.9844,105771.1094,64411.9805,3421.8508,3257.0962,3473.8857,3481.1946,80816.9297,70239.1484,74518.0078,83771.5156,3596.2390,3525.8311,3586.4043,78812.5156,73286.2500,-2845.9580,350.314972
3876.4629,4078.4556,-1883.1344,-211.9392,78427.7734,85633.2813,105692.1641,64566.9023,2982.0579,3453.6350,3484.7710,3567.0254,80594.6641,71256.1719,74253.6797,84376.7344,1841.5825,3369.8606,3337.0706,79681.1953,73278.1328,-2958.1416,350.318970
3896.1101,4029.6169,-2121.6721,-12.2264,78426.4141,85652.0391,105706.0703,64606.5742,2946.7644,3501.0208,3465.6155,3583.6775,80587.0625,71296.7891,74256.2734,84441.2188,1693.7927,3377.0356,3351.5994,79655.7578,73285.5078,-2933.5100,350.322968
1115.0837,606.1569,2871.1709,2864.9795,78378.8047,85477.3359,105786.0156,64462.7188,3440.9614,3310.2710,3444.1577,3493.5552,80805.4219,70270.9531,74515.9297,83853.3047,3559.7388,3538.6162,3623.0613,78764.4375,73296.0391,-2780.1323,350.326965
623.1219,470.7501,3175.5793,2758.5181,78384.5000,85459.5703,105766.3047,64408.5156,3413.6924,3253.8774,3472.3657,3486.3132,80813.6641,70231.3906,74510.8594,83769.3281,3565.3713,3524.6687,3583.6104,78809.8125,73282.9844,-2850.3167,350.330963
3863.3872,4063.9941,-1904.3239,-244.8410,78427.9297,85631.5625,105691.4453,64567.9727,2952.4194,3462.4863,3489.3308,3569.7522,80596.0938,71263.4141,74251.9531,84378.2344,1765.2737,3368.6760,3322.4973,79675.9844,73275.0703,-2966.6353,350.335938
3877.7371,4004.1584,-2112.4187,12.4723,78418.3438,85635.9219,105697.7266,64599.3555,2955.8616,3490.5825,3462.0393,3571.8086,80583.0625,71304.9453,74248.7813,84430.2266,1820.2142,3376.9238,3348.2466,79645.5000,73282.3594,-2927.8997,350.339935
959.2251,449.9182,2887.1970,2864.3760,78376.3906,85462.9609,105782.4844,64460.1484,3448.0024,3308.9744,3446.8848,3482.5581,80806.5625,70289.3750,74514.7656,83846.0391,3583.1187,3540.0244,3625.6316,78751.4297,73292.0391,-2792.4705,350.343933
-2233.9226,-2450.3994,5217.7461,3489.5542,78350.5703,85333.5469,105824.7344,64328.7891,3591.0981,3142.3198,3453.9927,3412.2620,80959.4453,69573.0234,74686.9219,83395.5156,3962.7407,3633.3430,3763.7878,78188.2734,73289.3984,-2731.5171,350.347931
699.1849,528.9764,3186.4421,2745.4424,78376.5938,85441.2188,105756.5625,64401.4531,3406.3386,3244.3108,3470.5105,3473.4834,80808.6797,70250.2578,74502.2266,83759.8984,3577.5977,3523.0596,3581.9341,78802.8125,73276.4609,-2844.7959,350.351929
3885.1355,4084.9600,-1898.5348,-307.3588,78423.5547,85621.8828,105685.6172,64564.3750,2885.2524,3460.2734,3490.9177,3565.5054,80594.9141,71274.9297,74247.1719,84373.0078,1701.6606,3354.9072,3257.6772,79669.7500,73269.3281,-2971.6868,350.355927
3891.8186,4020.3857,-2104.2825,28.0067,78419.7969,85636.6563,105698.2031,64600.9219,2931.1628,3500.7524,3469.7729,3579.0952,80587.6953,71305.1484,74249.8750,84429.7578,1669.7646,3370.4641,3315.9482,79638.2109,73278.0234,-2934.6721,350.359924
1009.0918,490.9337,2910.2642,2900.7869,78370.3984,85461.9141,105777.4609,64454.9648,3443.0850,3301.5090,3446.9519,3488.7720,80806.1094,70271.5156,74509.3125,83837.2813,3559.6941,3542.1479,3627.8445,78746.3984,73290.3828,-2784.0884,350.363922
731.9749,547.5507,3166.3479,2819.6724,78379.7188,85455.1641,105759.8047,64405.7461,3415.2571,3258.9290,3480.0994,3495.2314,80813.4453,70238.4766,74501.2188,83766.4922,3586.9407,3524.8252,3583.9902,78805.2969,73274.7344,-2852.6860,350.367920
3885.4707,4089.5645,-1912.6833,-155.2776,78417.5391,85625.4609,105681.0547,64560.3516,2928.5032,3455.7808,3491.4094,3577.1506,80592.4063,71257.5625,74238.3438,84369.2734,1814.7380,3369.3018,3327.3030,79668.3203,73265.5703,-2964.4895,350.371918
3887.4824,4018.9329,-2130.2107,-0.6706,78415.9531,85639.2500,105696.0547,64598.3281,2962.1201,3499.9031,3472.1646,3588.9524,80588.0469,71292.8281,74244.9609,84426.2031,1826.2493,3378.8906,3352.6274,79632.2891,73274.1797,-2941.0647,350.375916
958.0628,472.0912,2884.1350,2825.6179,78373.7969,85465.9375,105781.1016,64458.1367,3455.2444,3317.6470,3456.6301,3500.2161,80812.3281,70271.0859,74511.2109,83839.5781,3585.6221,3542.9302,3629.0291,78737.4141,73285.3984,-2795.7336,350.379913
-2212.9568,-2425.3206,5220.7417,3494.7175,78340.3125,85329.9297,105815.3203,64320.2031,3588.5725,3134.1392,3455.1101,3422.4319,80956.7891,69557.0859,74674.2500,83385.1484,3965.6016,3634.3264,3764.2795,78180.5000,73282.4297,-2728.8350,350.383911
800.5947,631.7050,3105.1265,2694.8826,78374.5781,85444.7031,105753.4297,64401.4531,3411.3455,3254.6597,3479.9653,3489.7554,80810.5859,70251.7734,74495.1406,83762.1953,3578.8047,3523.5513,3581.8445,78801.6094,73269.8672,-2857.9387,350.387909
3913.1646,4115.7607,-1971.5132,-245.8245,78422.9688,85623.0469,105683.6484,64565.3125,2909.4370,3474.3774,3501.7136,3579.4976,80598.1094,71278.9297,74242.2813,84374.4141,1762.9714,3355.0862,3263.1533,79664.3828,73262.6641,-2979.3533,350.391907
3892.4443,4020.7209,-2065.7930,115.8491,78410.0938,85625.5547,105688.7188,64592.5625,2962.7012,3494.0469,3470.6445,3580.4365,80585.3906,71299.5625,74239.9766,84416.6797,1841.0908,3371.6487,3327.0571,79623.6406,73270.8672,-2932.0347,350.395905
971.6080,479.8025,2965.2717,2909.3923,78365.5938,85452.5078,105772.0938,64450.1133,3450.6174,3305.8005,3452.7632,3491.3870,80808.1484,70270.2813,74505.1094,83826.7734,3592.5063,3543.0195,3630.3479,78725.9688,73280.7734,-2795.2419,350.399902
-2202.8760,-2429.9028,5233.5269,3508.3967,78346.8438,85333.8359,105819.8594,64326.4414,3598.8318,3153.6746,3466.7332,3431.3950,80963.9141,69566.1563,74679.8125,83389.7969,3969.3120,3636.3604,3767.2300,78174.2422,73279.2500,-2744.4812,350.403900
881.4410,670.8876,3162.3247,2791.1516,78369.0781,85440.4141,105747.3516,64397.0508,3411.3455,3252.0894,3479.2725,3491.2529,80806.7813,70249.0938,74487.5234,83757.0781,3588.6394,3523.8418,3582.8503,78797.1406,73264.3906,-2845.4216,350.407898
3917.4783,4122.3096,-1917.2655,-200.4728,78411.6406,85616.9922,105673.3906,64555.7266,2856.1953,3460.6980,3495.1646,3579.3411,80590.3984,71265.2500,74229.8516,84363.9531,1722.7159,3354.2368,3234.1631,79658.0391,73255.2656,-2972.0220,350.411896
3902.7485,4031.6511,-2114.8997,14.8639,78414.5859,85636.4141,105693.7734,64597.1641,2836.9727,3513.8506,3481.0830,3598.4294,80591.7813,71290.1953,74242.3906,84421.0391,1714.1553,3351.1074,3182.9778,79616.0391,73264.5703,-2950.4749,350.415894
1002.2075,492.9453,2927.5642,2867.7510,78364.0313,85457.8672,105772.1641,64449.0391,3451.5339,3310.0249,3457.2112,3504.7087,80810.4922,70253.1406,74501.9141,83823.8438,3599.3013,3544.4055,3625.9668,78720.9219,73277.7578,-2788.7375,350.419891
-2219.8857,-2422.1914,5227.2681,3504.9768,78335.7969,85331.0469,105810.8281,64316.8984,3591.7241,3137.0002,3461.0110,3435.1948,80957.7031,69546.0625,74667.0469,83379.5391,3969.4460,3637.2769,3767.1182,78172.3438,73275.9688,-2732.7019,350.423889
3929.6377,4138.6265,-1981.0127,-128.6343,78415.2109,85623.1797,105676.6094,64559.8828,2921.5740,3471.2705,3504.7087,3591.9700,80595.6719,71266.6094,74230.0313,84368.3359,1853.2948,3372.1406,3321.8044,79659.2422,73255.5859,-2975.5759,350.427887
3902.4133,4023.0457,-2046.1010,228.2337,78404.7109,85625.7500,105684.5391,64588.2227,2952.4641,3494.4939,3476.2102,3593.2439,80586.7734,71283.7109,74232.3516,84408.4531,1903.1616,3384.3445,3343.9326,79611.5000,73263.7188,-2933.3982,350.431885
1040.3173,496.7228,3003.0908,2952.5313,78361.7969,85450.8516,105768.8750,64446.2031,3458.0159,3313.5789,3460.3406,3502.4287,80810.8047,70255.6172,74499.0781,83817.7188,3610.7900,3544.7854,3630.6609,78708.2656,73270.2891,-2796.9185,350.435883
-2188.2134,-2408.0427,5234.2417,3509.9167,78335.8438,85323.5547,105808.6875,64316.3164,3594.8979,3146.2761,3466.3977,3432.6914,80959.0469,69558.3828,74665.5547,83376.8750,3969.9827,3635.6675,3765.5313,78163.3750,73268.9688,-2738.0215,350.439880
879.3400,708.5950,3123.0081,2764.2625,78363.1563,85433.8594,105739.7266,64392.7578,3403.9695,3252.0222,3483.9885,3495.1646,80804.9297,70257.9453,74476.8359,83753.0547,3568.0313,3524.9595,3579.2964,78795.0156,73257.2109,-2853.1331,350.443878
3910.0798,4033.9534,-2046.4586,205.7925,78408.2656,85624.1016,105686.4453,64591.2656,2838.0010,3509.2014,3485.0615,3596.8872,80592.8984,71293.4141,74235.4375,84409.4844,1774.8179,3359.2883,3199.9204,79605.9844,73261.1719,-2942.5400,350.447876
1033.4105,481.8813,3018.0889,2973.9666,78355.8047,85443.5156,105763.5078,64440.7031,3450.7964,3302.2019,3459.2676,3500.9089,80810.5859,70251.2813,74494.3594,83808.1953,3621.8542,3548.7192,3630.0574,78706.5703,73272.2109,-2787.8660,350.451874
-2204.4854,-2434.5967,5238.2207,3516.4658,78334.6328,85325.3906,105807.5469,64315.7109,3597.4907,3147.5278,3470.2200,3439.7993,80961.3203,69554.2266,74663.3828,83375.1094,3973.7825,3639.0874,3769.2417,78163.9375,73269.1953,-2743.7883,350.455872
834.7482,664.6962,3125.6230,2807.3120,78367.7188,85443.8125,105743.8672,64397.7422,3417.0676,3267.1768,3493.7788,3511.0342,80810.5156,70255.7578,74477.7500,83759.1797,3586.6055,3528.8486,3586.1809,78797.3359,73255.9141,-2860.0398,350.459869
3936.4551,4146.7847,-1951.0389,-71.1680,78407.1016,85615.7578,105667.8438,64553.4219,2932.7500,3465.0344,3506.3403,3595.0098,80593.4844,71266.4297,74219.3672,84360.0391,1822.2706,3376.0745,3335.1260,79655.8672,73249.7031,-2974.3464,350.463867
3906.4812,4026.2419,-2031.1477,255.8828,78405.5781,85628.2109,105685.3672,64589.4297,2952.8442,3507.1897,3487.5649,3607.5266,80594.6016,71279.2422,74231.8828,84406.0625,1783.4904,3389.8430,3358.0142,79603.9219,73259.5625,-2946.8315,350.467865
1035.9810,452.8016,3045.0452,2994.3960,78358.9766,85450.6719,105766.9531,64443.5625,3462.4639,3314.5847,3467.8953,3514.7446,80817.0234,70242.8828,74496.1484,83809.6250,3587.5442,3553.1003,3639.0649,78702.3672,73269.5781,-2796.0691,350.471863
-2173.3047,-2406.3665,5236.9688,3515.2141,78327.2344,85319.8672,105800.5703,64308.9375,3594.2275,3138.1848,3467.4482,3439.8887,80957.7500,69545.9766,74655.0234,83366.6172,3974.8105,3639.4226,3769.3086,78159.3125,73264.2578,-2735.7192,350.475861
904.3739,743.0613,3140.8894,2796.0691,78361.8828,85437.2813,105736.9375,64392.6484,3407.0315,3263.5334,3492.1470,3508.0837,80806.8281,70257.9219,74470.1953,83753.9531,3566.0195,3525.7417,3577.3965,78793.0469,73249.5234,-2864.6665,350.479858
3951.0283,4162.4536,-1936.7115,-98.2806,78407.9531,85611.9609,105666.3906,64554.1367,2891.0193,3475.6067,3511.5930,3594.4509,80595.4063,71277.1641,74218.0938,84360.0391,1740.9103,3366.9102,3269.3447,79649.7891,73244.0078,-2982.5496,350.483856
951.3126,445.1573,3085.0100,2999.7827,78352.0703,85435.9219,105758.9766,64435.9883,3461.2346,3307.8123,3464.8779,3502.8535,80813.6875,70246.2578,74490.0000,83796.9766,3617.0933,3551.3792,3637.9922,78686.8125,73261.3750,-2796.8960,350.487854
-2195.6565,-2405.3828,5244.1660,3521.2712,78328.5078,85313.3906,105799.6563,64309.2734,3598.6084,3149.2937,3472.9246,3437.4524,80960.4063,69558.7188,74654.5781,83364.7188,3975.7046,3638.6626,3768.8616,78150.4141,73258.3750,-2740.9050,350.491852
966.9588,803.3440,3085.7476,2804.5850,78356.4297,85427.4219,105730.6328,64387.7500,3406.9868,3258.2361,3490.8059,3503.0322,80804.2344,70266.1250,74462.9375,83748.1641,3577.5754,3527.1052,3582.4927,78791.4141,73246.5781,-2856.7317,350.495850
3958.9409,4173.0034,-1987.5394,-112.2281,78401.6250,85605.0313,105660.1094,64548.5742,2848.6404,3470.3987,3509.6038,3592.9980,80592.4531,71277.0703,74210.4453,84353.7813,1702.1747,3357.7012,3231.2126,79645.6797,73238.8594,-2982.9966,350.499847
3905.8777,4031.4946,-1980.1187,337.8019,78397.1563,85614.4688,105676.0078,64580.8711,2949.6030,3507.5249,3488.0791,3604.2188,80592.9219,71276.1563,74222.5625,84392.3125,1776.3824,3376.7002,3299.5420,79585.6641,73247.8672,-2942.8530,350.503845
985.2872,447.2807,3104.4114,3031.8799,78345.7891,85435.0938,105754.0781,64430.1094,3460.9216,3302.2466,3463.5369,3509.4919,80812.3516,70228.0391,74483.8359,83789.0391,3595.4343,3552.7202,3640.1602,78682.4766,73258.4688,-2790.3022,350.507843
-2167.1804,-2396.8223,5244.5239,3525.3618,78323.6172,85317.9688,105795.7422,64305.3398,3598.8096,3146.8125,3472.9246,3447.8682,80959.1563,69541.1250,74648.8594,83360.9844,3975.6824,3639.1096,3769.0181,78148.9375,73254.7344,-2749.7339,350.511841
-2167.1804,-2396.8223,5244.5239,3525.3618,78323.6172,85317.9688,105795.7422,64305.3398,3598.8096,3146.8125,3472.9246,3447.8682,80959.1563,69541.1250,74648.8594,83360.9844,3975.6824,3639.1096,3769.0181,78148.9375,73254.7344,-2749.7339,350.515839
1005.7167,852.2720,3127.5901,2860.4868,78358.9063,85439.0703,105732.1953,64390.6797,3416.1511,3275.4468,3498.4055,3520.4443,80807.1875,70256.0469,74462.2422,83753.8359,3578.6482,3525.8311,3581.4871,78790.4141,73240.4688,-2870.5898,350.519836
1005.7167,852.2720,3127.5901,2860.4868,78358.9063,85439.0703,105732.1953,64390.6797,3416.1511,3275.4468,3498.4055,3520.4443,80807.1875,70256.0469,74462.2422,83753.8359,3578.6482,3525.8311,3581.4871,78790.4141,73240.4688,-2870.5898,350.523834
3960.0808,4178.2783,-1944.7582,19.4907,78395.3672,85605.9688,105653.8750,64542.9844,2911.5159,3467.0012,3507.8379,3599.2788,80588.7188,71261.3359,74202.6250,84348.3281,1808.0101,3373.3921,3316.2166,79642.6797,73233.4297,-2974.7266,350.527832
3960.0808,4178.2783,-1944.7582,19.4907,78395.3672,85605.9688,105653.8750,64542.9844,2911.5159,3467.0012,3507.8379,3599.2788,80588.7188,71261.3359,74202.6250,84348.3281,1808.0101,3373.3921,3316.2166,79642.6797,73233.4297,-2974.7266,350.531830
3906.7720,4036.0098,-2027.3702,339.4336,78393.8672,85615.4297,105672.4688,64577.6055,2969.6079,3505.2898,3490.0906,3610.6782,80593.1484,71266.2969,74218.8516,84387.3516,1940.0420,3390.9829,3348.1794,79582.0859,73244.7188,-2948.1279,350.535828
947.2446,462.8152,3064.1111,2970.9937,78353.4375,85441.4609,105759.9375,64436.4102,3474.0869,3322.4302,3477.5737,3522.5454,80822.2031,70233.0703,74490.0000,83793.7813,3632.8960,3556.7883,3643.3564,78680.1016,73257.0547,-2805.9485,350.539825
947.2446,462.8152,3064.1111,2970.9937,78353.4375,85441.4609,105759.9375,64436.4102,3474.0869,3322.4302,3477.5737,3522.5454,80822.2031,70233.0703,74490.0000,83793.7813,3632.8960,3556.7883,3643.3564,78680.1016,73257.0547,-2805.9485,350.543823
-2184.7488,-2391.3237,5248.1445,3527.6863,78320.8203,85310.1484,105791.8047,64302.3906,3598.8767,3144.2422,3475.2715,3446.1919,80959.7344,69548.6563,74644.9688,83355.8906,3980.5774,3642.3284,3772.5496,78148.7344,73253.9063,-2737.9768,350.547821
-2184.7488,-2391.3237,5248.1445,3527.6863,78320.8203,85310.1484,105791.8047,64302.3906,3598.8767,3144.2422,3475.2715,3446.1919,80959.7344,69548.6563,74644.9688,83355.8906,3980.5774,3642.3284,3772.5496,78148.7344,73253.9063,-2737.9768,350.551819
1016.4232,853.0767,3029.2871,2757.2217,78355.5547,85429.5703,105727.9531,64387.9063,3416.9558,3269.3447,3498.8750,3513.9846,80806.9375,70271.3594,74457.9063,83749.8359,3561.5044,3529.2510,3585.0632,78792.2188,73240.9453,-2870.3215,350.555817
1016.4232,853.0767,3029.2871,2757.2217,78355.5547,85429.5703,105727.9531,64387.9063,3416.9558,3269.3447,3498.8750,3513.9846,80806.9375,70271.3594,74457.9063,83749.8359,3561.5044,3529.2510,3585.0632,78792.2188,73240.9453,-2870.3215,350.559814
3981.8291,4196.7188,-2037.3391,-72.8890,78404.2656,85606.9531,105660.4688,64551.4766,2912.6111,3489.0847,3521.6736,3604.0623,80598.9609,71286.2188,74209.3516,84356.4453,1723.7888,3363.0881,3251.2400,79643.7344,73233.9688,-2993.4573,350.563812
3912.2034,4038.5801,-1955.5988,437.6248,78389.3984,85603.1797,105667.3750,64573.0469,2994.0830,3502.3171,3490.2917,3603.1235,80592.9219,71273.6094,74214.2031,84379.0391,1958.9962,3382.5117,3313.2214,79575.8516,73241.4766,-2938.8296,350.567810
3912.2034,4038.5801,-1955.5988,437.6248,78389.3984,85603.1797,105667.3750,64573.0469,2994.0830,3502.3171,3490.2917,3603.1235,80592.9219,71273.6094,74214.2031,84379.0391,1958.9962,3382.5117,3313.2214,79575.8516,73241.4766,-2938.8296,350.571808
992.4398,469.4090,3146.8572,3035.9033,78344.4688,85428.0078,105751.2188,64427.4492,3471.7622,3308.7734,3473.2151,3513.0684,80818.7891,70230.2031,74482.0703,83780.0156,3639.0649,3557.6824,3645.5693,78671.6328,73252.4531,-2800.6287,350.575806
992.4398,469.4090,3146.8572,3035.9033,78344.4688,85428.0078,105751.2188,64427.4492,3471.7622,3308.7734,3473.2151,3513.0684,80818.7891,70230.2031,74482.0703,83780.0156,3639.0649,3557.6824,3645.5693,78671.6328,73252.4531,-2800.6287,350.579803
-2151.7129,-2376.7502,5259.4771,3540.5386,78326.9219,85315.3516,105796.0313,64307.6445,3609.2031,3164.1799,3486.9614,3455.9148,80967.3828,69555.0313,74648.8984,83360.7813,3981.6055,3642.7754,3772.9966,78144.9844,73249.4375,-2759.3452,350.583801
1108.0430,955.9170,3059.9761,2849.9143,78353.4531,85430.2422,105724.7109,64386.1641,3418.7214,3273.3235,3502.4512,3520.8242,80807.0078,70268.4297,74452.7422,83748.6328,3591.1206,3529.7427,3584.9292,78792.3125,73236.1563,-2864.9570,350.587799
1108.0430,955.9170,3059.9761,2849.9143,78353.4531,85430.2422,105724.7109,64386.1641,3418.7214,3273.3235,3502.4512,3520.8242,80807.0078,70268.4297,74452.7422,83748.6328,3591.1206,3529.7427,3584.9292,78792.3125,73236.1563,-2864.9570,350.591797
3983.5725,4204.6758,-2003.6104,59.0533,78391.8984,85600.8281,105648.8672,64540.5039,2914.6003,3470.8906,3514.2976,3603.9058,80591.0703,71269.0078,74195.7891,84344.4844,1824.6399,3377.0132,3302.4478,79641.6328,73228.3125,-2978.2805,350.595795
3919.1770,4048.6606,-1996.3459,422.8056,78392.2578,85612.6563,105669.8828,64575.6172,2916.5896,3515.9963,3499.0090,3618.9932,80598.6406,71262.3438,74215.5859,84381.0938,1895.7408,3392.9500,3293.6189,79572.4063,73237.0313,-2952.8889,350.599792
3919.1770,4048.6606,-1996.3459,422.8056,78392.2578,85612.6563,105669.8828,64575.6172,2916.5896,3515.9963,3499.0090,3618.9932,80598.6406,71262.3438,74215.5859,84381.0938,1895.7408,3392.9500,3293.6189,79572.4063,73237.0313,-2952.8889,350.603790
1019.0831,489.3020,3114.0002,3019.3630,78344.3828,85433.3047,105751.0859,64426.9336,3469.8623,3315.4119,3479.4958,3525.8982,80822.6563,70216.6172,74480.9531,83777.7969,3646.7988,3559.5151,3641.7473,78668.5703,73248.7188,-2799.4219,350.607788
-2164.8782,-2394.7881,5254.8726,3536.8953,78315.5469,85308.4219,105785.5313,64297.1602,3601.6707,3144.6445,3480.9712,3455.5349,80961.5469,69540.8359,74637.1641,83348.4453,3983.8406,3644.4070,3774.8296,78146.0547,73246.8672,-2741.6873,350.611786
987.4777,826.9474,3017.1948,2785.7871,78355.1094,85433.4609,105724.8438,64387.8633,3422.1414,3282.3760,3509.5366,3529.3403,80810.7422,70273.4609,74451.8438,83751.7578,3553.0779,3530.6592,3585.8455,78796.4688,73233.4766,-2879.9998,350.615784
3912.5164,4032.1650,-1931.6154,544.9355,78383.1172,85598.8828,105660.2500,64566.5430,2975.3076,3500.7078,3495.5669,3612.1758,80594.5781,71263.1719,74206.3359,84368.5078,1986.9806,3396.4146,3349.4983,79569.2813,73232.8984,-2940.1707,350.619781
-2137.0950,-2388.8650,5265.3555,3546.3501,78318.4531,85304.8281,105785.9063,64298.9922,3607.1914,3156.4685,3489.8225,3458.9771,80966.5078,69554.5391,74637.4531,83348.7578,3987.1487,3645.5918,3776.2600,78144.8438,73242.3750,-2750.3821,350.623779
4002.9514,4224.4570,-2032.7570,78.8569,78391.2109,85596.0703,105644.7578,64539.1836,2887.2417,3482.0217,3525.2275,3611.8406,80595.0703,71281.6094,74190.1094,84342.4297,1749.0016,3369.0112,3256.6714,79642.6406,73219.3750,-2988.2493,350.627777
1029.5884,480.6966,3209.7104,3115.0508,78336.4453,85420.7188,105742.0547,64417.7930,3470.4883,3306.8958,3483.3628,3527.7310,80824.0859,70212.0313,74471.8984,83761.7969,3650.2185,3565.0808,3649.9504,78663.1172,73241.6563,-2797.4995,350.631775
1084.2161,926.8151,3029.4436,2875.0601,78352.0000,85430.4688,105718.9453,64384.9805,3421.6050,3285.5498,3517.8516,3539.8232,80812.0625,70280.3203,74442.3906,83748.7891,3587.0972,3535.6882,3588.7512,78805.1875,73227.4219,-2878.3682,350.635773
3926.9109,4051.0525,-1867.3988,551.4399,78386.1328,85603.5547,105661.9453,64568.5313,2980.7390,3514.1411,3509.8049,3630.0796,80604.8828,71259.9063,74206.5156,84367.2344,1982.2644,3403.2095,3367.6255,79571.8906,73230.5938,-2955.6157,350.639771
1043.3571,418.0446,3277.3020,3103.8972,78344.2734,85427.9375,105748.6953,64424.3867,3486.0896,3324.3301,3496.3491,3541.1868,80834.9219,70215.6328,74478.3594,83766.6719,3655.1807,3571.2275,3658.5110,78666.3125,73243.8281,-2808.8989,350.643768
1188.0176,1022.5029,3023.0286,2851.0320,78350.3516,85427.0000,105715.4297,64383.1680,3415.3689,3285.2368,3520.8242,3541.7009,80813.1797,70289.8672,74438.5234,83747.9844,3579.6094,3537.0964,3585.0632,78812.2891,73226.9531,-2884.9172,350.647766
4029.3489,4254.6099,-2038.0767,150.6954,78393.0625,85597.9922,105643.8203,64540.8398,2881.3857,3494.2705,3537.3423,3626.5928,80601.7031,71290.4844,74186.9766,84344.6172,1781.5010,3371.9395,3250.2341,79653.4531,73217.4297,-2997.4358,350.651764
974.5807,433.9814,3245.3167,3126.0701,78337.7188,85419.2188,105741.6953,64417.0781,3486.2908,3319.1670,3494.2258,3537.9233,80832.0859,70210.8750,74472.1641,83756.5469,3666.1553,3570.3335,3657.8406,78659.1172,73236.5859,-2812.6094,350.655762
-2133.6304,-2371.3188,5281.6724,3566.0420,78316.6172,85304.3594,105780.7656,64295.6406,3616.2439,3169.7231,3503.3677,3477.3726,80972.6328,69553.3281,74629.7891,83343.5938,3994.5471,3650.3975,3780.8198,78149.8750,73233.3438,-2761.9155,350.659760
1208.7375,1046.3745,3029.5107,2908.8782,78345.1875,85423.0859,105709.1719,64378.2734,3418.7664,3282.1970,3521.0032,3544.8301,80810.3594,70288.3672,74430.6328,83743.6250,3595.3450,3538.2139,3589.6899,78816.8047,73222.7500,-2877.9883,350.663757
4037.4402,4265.5620,-2047.3750,160.2397,78389.5781,85597.8984,105639.9063,64537.5547,2821.3936,3492.4375,3539.0186,3632.2925,80601.4844,71286.0391,74181.6797,84341.4922,1743.3689,3364.6304,3187.7385,79658.0625,73215.2344,-3001.3027,350.667755
3944.7251,4072.5547,-1849.3610,622.3843,78387.8125,85604.3594,105661.9453,64568.8438,2906.8667,3530.8154,3520.8689,3642.7979,80612.2109,71258.5234,74205.6406,84364.6016,1924.3286,3372.9004,3196.8804,79570.6406,73225.5000,-2962.5449,350.671753
1018.3455,473.2758,3314.6741,3134.5862,78332.5547,85416.4297,105737.0000,64411.6680,3487.5649,3314.6294,3493.2869,3540.2480,80831.0156,70198.0859,74466.0391,83748.0234,3669.3516,3571.6299,3657.5947,78655.9609,73233.3672,-2801.0088,350.675751
-2128.2659,-2355.8962,5279.5488,3565.4160,78309.7109,85300.0234,105773.9531,64288.8438,3613.8970,3160.1565,3500.5513,3476.9702,80969.1016,69545.6172,74621.1406,83335.0313,3995.4412,3651.4927,3781.2668,78149.1406,73228.8516,-2763.1672,350.679749
1223.0874,1099.9293,3009.6624,2908.1406,78349.7422,85427.7813,105711.8594,64382.3633,3428.2434,3300.3691,3529.9214,3553.4355,80814.8750,70296.1016,74431.0391,83748.8750,3595.6355,3538.4375,3589.4888,78817.5703,73217.2031,-2893.7014,350.683746
3943.2500,4076.8240,-1895.6737,753.4550,78377.2813,85590.1484,105651.1953,64558.2266,3003.3591,3515.0576,3514.0964,3632.9407,80606.0234,71256.3750,74195.2734,84350.7656,2092.7268,3408.4844,3363.3787,79565.3438,73219.4141,-2955.0122,350.687744
1038.2832,526.7412,3264.2710,3142.2751,78337.0703,85415.2422,105739.2813,64414.3281,3496.2820,3331.8850,3502.0488,3543.9360,80837.2266,70207.9219,74469.4609,83748.9219,3681.4216,3572.1663,3659.6287,78651.4297,73228.2891,-2820.6113,350.691742
-2087.2505,-2333.0527,5283.4380,3569.3723,78308.1953,85293.2031,105770.7109,64286.6758,3616.0874,3164.0457,3502.6970,3475.3162,80969.5078,69553.8906,74618.1875,83331.4141,3996.8047,3651.8503,3782.3174,78147.6172,73224.6016,-2758.9651,350.695740
1293.4507,1125.5891,2988.1824,2893.6343,78338.6406,85414.0391,105699.9219,64371.8359,3418.7664,3283.3147,3521.3162,3543.6230,80806.1563,70297.6406,74418.6328,83737.2109,3564.5667,3537.6328,3587.3655,78816.6719,73211.4609,-2878.2788,350.699738
4055.6792,4286.7964,-2076.5439,216.0296,78387.5234,85592.0703,105635.0313,64535.0508,2869.8298,3502.8760,3543.4890,3634.9077,80601.6406,71295.8906,74174.8203,84338.4688,1705.2368,3368.2065,3208.6375,79654.9531,73204.7344,-3003.9849,350.703735
3940.4783,4066.5198,-1877.6359,789.4636,78376.7891,85589.3672,105650.1641,64557.2656,2929.3525,3522.3218,3515.9292,3636.6958,80607.3359,71252.6172,74193.7969,84347.9063,2009.3994,3379.6731,3216.5500,79560.1172,73215.3906,-2953.6936,350.707733
1015.1938,471.1524,3289.9084,3172.2041,78326.2578,85406.8828,105730.3203,64404.1797,3491.7446,3312.8638,3493.0188,3539.2644,80831.4141,70191.6719,74460.0313,83734.6172,3690.7646,3575.5190,3661.9531,78647.1797,73227.0859,-2802.2158,350.711731
-2123.9968,-2351.8728,5286.0088,3576.4131,78308.6172,85297.7422,105771.2656,64287.2813,3620.7813,3171.8018,3505.5581,3483.0945,80971.7422,69548.4766,74617.3594,83331.9297,3997.6987,3653.7053,3784.1726,78148.0000,73223.1953,-2766.8105,350.715729
-2123.9968,-2351.8728,5286.0088,3576.4131,78308.6172,85297.7422,105771.2656,64287.2813,3620.7813,3171.8018,3505.5581,3483.0945,80971.7422,69548.4766,74617.3594,83331.9297,3997.6987,3653.7053,3784.1726,78148.0000,73223.1953,-2766.8105,350.719727
1250.2224,1129.0536,2985.1201,2929.1067,78343.7344,85423.2891,105704.3906,64377.3125,3432.3562,3300.4138,3529.6755,3556.6541,80812.0156,70299.6328,74420.7578,83744.5859,3595.3674,3541.3208,3592.5735,78822.8906,73212.1094,-2887.7112,350.723724
4054.9192,4289.9927,-2073.1465,325.6873,78380.1875,85588.6953,105629.0625,64529.3516,2973.4077,3492.1917,3539.1304,3635.1089,80598.2891,71287.7344,74166.9531,84331.3828,1884.5203,3392.7935,3341.4739,79658.1016,73205.0703,-2993.0774,350.727722
3942.9817,4067.0562,-1862.1238,821.2031,78375.7422,85590.5938,105649.9609,64556.7070,3015.0938,3523.7747,3518.0081,3640.8083,80609.3984,71246.8750,74192.3438,84344.8438,1972.9437,3414.0054,3377.3037,79556.9219,73213.2734,-2957.8286,350.731720
1055.8517,481.0319,3311.6567,3192.9019,78328.8438,85409.3438,105732.8906,64406.2383,3497.8020,3324.3748,3499.0313,3544.5842,80836.1094,70189.2813,74461.5469,83733.7188,3668.5469,3578.9165,3667.2283,78640.8359,73223.1719,-2807.4685,350.735718
-2074.8005,-2332.2256,5280.2417,3572.1887,78299.9688,85288.2422,105762.8828,64279.1016,3616.4451,3158.3462,3499.3667,3475.8079,80966.6016,69544.1641,74608.0859,83320.8828,3998.9058,3655.1807,3785.9382,78143.9766,73218.9688,-2754.1594,350.739716
1289.4274,1136.0497,2965.0259,2919.3167,78340.0938,85417.8359,105699.8125,64374.0703,3423.6836,3298.1338,3527.9546,3552.0945,80810.1328,70304.7500,74415.5000,83740.6484,3568.6570,3541.5444,3587.9690,78821.3672,73208.2891,-2891.1311,350.743713
4056.7969,4292.1606,-2086.1777,327.0284,78381.1719,85586.0313,105628.1953,64529.9102,2959.1250,3501.3782,3542.0361,3633.6113,80600.0078,71295.7813,74165.7422,84331.2500,1832.0830,3391.5642,3312.5955,79654.1953,73200.7109,-2998.0171,350.747711
3925.4355,4052.3264,-1822.7623,877.0377,78377.9063,85587.5313,105647.9297,64554.4727,3035.2327,3515.5715,3515.1245,3633.5217,80609.1953,71247.9688,74188.3906,84338.6719,2104.7744,3418.8779,3383.6294,79550.9922,73210.0547,-2949.2456,350.751709
3925.4355,4052.3264,-1822.7623,877.0377,78377.9063,85587.5313,105647.9297,64554.4727,3035.2327,3515.5715,3515.1245,3633.5217,80609.1953,71247.9688,74188.3906,84338.6719,2104.7744,3418.8779,3383.6294,79550.9922,73210.0547,-2949.2456,350.755707
937.0745,401.4820,3346.5479,3214.4712,78370.0000,85439.7656,105754.5703,64425.9063,3513.0906,3329.6499,3507.3909,3548.3169,80848.9141,70198.9844,74470.3359,83747.8906,3716.7820,3599.1672,3696.2185,78635.3125,73219.0156,-2809.4800,350.759705
-2101.5779,-2353.8621,5289.8530,3592.1711,78358.6641,85334.1484,105796.5703,64311.1758,3638.8862,3181.3237,3517.8291,3490.4707,80986.9141,69563.7656,74624.3594,83348.8672,4037.0154,3685.1096,3820.8293,78143.7734,73215.5938,-2765.4919,350.763702
1304.7383,1149.2373,2976.6265,2974.6372,78392.5703,85459.4297,105727.4766,64400.3789,3445.0295,3304.2358,3539.1528,3562.4434,80824.0391,70319.5703,74424.4453,83763.2969,3637.5005,3568.7688,3627.9785,78825.2813,73205.8281,-2890.7734,350.767700
4060.9988,4297.1450,-2083.1602,415.5189,78435.7969,85631.3438,105657.8750,64557.6680,3017.2395,3512.7554,3554.4414,3647.7151,80615.3203,71306.1563,74176.6328,84355.2109,2031.1252,3412.3735,3370.4419,79655.4219,73197.0234,-3005.4155,350.771698
3930.2634,4054.2039,-1821.4883,995.3455,78429.0078,85630.5547,105677.2109,64581.4297,3119.1636,3537.7893,3530.2344,3652.1855,80626.2734,71252.3047,74201.9141,84361.6484,2216.7566,3436.7817,3432.3784,79548.6016,73206.6328,-2958.1638,350.775696
947.6469,392.8990,3355.7791,3251.2400,78377.1953,85445.7109,105755.6875,64425.5273,3516.0635,3325.4253,3505.6699,3552.4297,80849.7891,70184.8984,74467.4688,83743.9609,3717.0725,3604.0176,3703.4158,78631.0000,73216.5547,-2806.3284,350.779694
947.6469,392.8990,3355.7791,3251.2400,78377.1953,85445.7109,105755.6875,64425.5273,3516.0635,3325.4253,3505.6699,3552.4297,80849.7891,70184.8984,74467.4688,83743.9609,3717.0725,3604.0176,3703.4158,78631.0000,73216.5547,-2806.3284,350.783691
-2073.4595,-2341.2559,5284.6899,3590.1594,78354.8438,85333.0078,105790.3125,64304.6016,3634.9299,3175.3335,3512.2859,3491.5435,80982.7813,69548.3906,74616.4688,83341.7656,4032.4111,3681.9133,3817.3872,78140.1094,73210.8125,-2766.6765,350.787689
1368.0608,1193.9855,2974.8831,2989.9705,78395.7656,85464.7969,105727.2813,64400.8711,3448.4270,3315.4565,3541.1196,3570.1323,80824.6406,70313.1953,74421.7188,83765.2344,3635.3770,3565.7959,3624.8716,78824.1641,73200.9063,-2894.8413,350.791687
4061.5129,4300.1626,-2080.5449,458.2108,78434.3047,85630.8672,105654.1875,64554.1367,3037.8032,3509.0449,3551.7815,3649.5481,80613.5938,71297.9531,74171.1563,84351.0781,2090.5139,3418.1182,3409.6692,79655.5547,73195.7031,-3001.3921,350.795685
3922.0381,4048.3701,-1882.3297,926.3456,78428.5547,85629.1016,105674.8203,64578.4570,3108.5688,3535.8447,3529.0945,3652.2974,80626.7813,71245.3125,74199.0234,84356.2891,2304.1519,3440.6709,3455.7808,79543.5938,73204.1250,-2966.4788,350.799683
883.9221,371.3966,3308.7957,3189.1245,78385.0625,85448.8359,105760.5391,64429.8633,3525.5630,3342.6584,3513.8281,3557.8164,80856.9844,70186.8906,74471.8047,83745.3906,3735.8035,3605.5820,3704.5557,78624.0000,73213.0938,-2817.5713,350.803680
883.9221,371.3966,3308.7957,3189.1245,78385.0625,85448.8359,105760.5391,64429.8633,3525.5630,3342.6584,3513.8281,3557.8164,80856.9844,70186.8906,74471.8047,83745.3906,3735.8035,3605.5820,3704.5557,78624.0000,73213.0938,-2817.5713,350.807678
-2101.4438,-2339.4453,5285.9189,3590.4946,78355.6484,85327.7578,105788.4297,64303.1055,3636.0029,3174.4395,3513.2695,3488.4590,80983.5156,69553.1719,74613.6328,83337.0000,4035.7190,3685.3333,3819.7341,78137.0000,73208.0625,-2762.0049,350.811676
1364.9315,1216.1807,2877.4294,2885.1184,78393.6016,85456.7266,105722.0234,64397.0273,3445.0520,3311.6343,3539.2644,3563.0691,80822.2500,70321.6719,74415.7266,83760.2109,3621.6753,3564.4326,3622.1672,78820.7188,73194.9453,-2900.0493,350.815674
4074.1641,4312.2324,-2158.0833,368.2450,78439.8203,85629.2578,105655.7500,64557.0664,3022.6934,3525.5181,3558.1294,3649.5928,80617.5078,71310.8047,74172.0469,84353.5156,2014.1379,3407.7915,3357.9473,79649.3438,73188.6172,-3013.6855,350.819672
3920.2947,4047.5208,-1814.4252,1008.7342,78421.7422,85615.7422,105665.9453,64569.6289,3128.1936,3526.6135,3523.1711,3641.6802,80621.6250,71242.4297,74189.9531,84343.5469,2304.8672,3433.7195,3423.2590,79533.1172,73196.2422,-2952.1064,350.823669
900.3506,388.9203,3371.5146,3229.6929,78376.2813,85436.1016,105750.1250,64418.8633,3519.2598,3327.4146,3505.7815,3547.2441,80850.9531,70178.0859,74461.8359,83730.1875,3734.8423,3602.2070,3700.8230,78613.9219,73205.7813,-2812.0059,350.827667
-2071.9172,-2326.1235,5292.8481,3598.3401,78361.4141,85331.3125,105790.8438,64305.9883,3642.4177,3190.0632,3520.2432,3494.6951,80988.7734,69556.3203,74615.5703,83339.7734,4033.9980,3683.5449,3817.3650,78134.8984,73204.3047,-2775.6619,350.831665
1436.7925,1266.2933,2915.5837,2959.9519,78389.3281,85452.1016,105715.2734,64391.1953,3443.1521,3307.0076,3536.0012,3562.1079,80818.3359,70316.9766,74407.2109,83754.3750,3628.5374,3562.2644,3619.5967,78821.4375,73190.7656,-2888.5159,350.835663
1436.7925,1266.2933,2915.5837,2959.9519,78389.3281,85452.1016,105715.2734,64391.1953,3443.1521,3307.0076,3536.0012,3562.1079,80818.3359,70316.9766,74407.2109,83754.3750,3628.5374,3562.2644,3619.5967,78821.4375,73190.7656,-2888.5159,350.839661
4071.8171,4312.5903,-2123.2146,384.8970,78432.4063,85623.4063,105646.8125,64548.4375,2981.7673,3512.3752,3551.6697,3647.0000,80611.9844,71300.3672,74162.0313,84343.9453,1967.6687,3413.8489,3371.3135,79648.7422,73184.4375,-3007.4495,350.843658
3927.4026,4050.3818,-1863.8895,920.9142,78428.6484,85623.3828,105670.1250,64573.7422,3005.1697,3545.0759,3532.4473,3654.0408,80628.5078,71238.3828,74193.5703,84346.7891,2154.4622,3436.8264,3384.1658,79528.6406,73190.3594,-2970.1892,350.847656
911.0794,375.6881,3339.3728,3211.0068,78375.8047,85435.2969,105747.9531,64416.0703,3516.5774,3329.8733,3508.0391,3552.5637,80852.1563,70167.9766,74458.8672,83724.3828,3738.9551,3602.7212,3698.0066,78608.1094,73199.5703,-2807.7366,350.851654
-2116.9561,-2356.7678,5281.6948,3588.2148,78348.3359,85318.6875,105776.6797,64292.0195,3630.5938,3168.9856,3509.0227,3486.3354,80978.6016,69542.0391,74600.5781,83323.5703,4029.6394,3679.2759,3812.4028,78128.4375,73194.7891,-2762.4744,350.855652
-2116.9561,-2356.7678,5281.6948,3588.2148,78348.3359,85318.6875,105776.6797,64292.0195,3630.5938,3168.9856,3509.0227,3486.3354,80978.6016,69542.0391,74600.5781,83323.5703,4029.6394,3679.2759,3812.4028,78128.4375,73194.7891,-2762.4744,350.859650
1302.7714,1154.4229,2852.6636,2896.8755,78393.4219,85455.5859,105716.1250,64393.5195,3447.4658,3320.5974,3542.0361,3568.5229,80821.3984,70322.0469,74406.8281,83757.8594,3622.4353,3559.9175,3616.8027,78820.4297,73184.2578,-2906.1067,350.863647
4069.9172,4310.5786,-2166.1299,424.1020,78432.6250,85621.1719,105644.5078,64547.0977,3038.5630,3517.9856,3553.9497,3648.5198,80612.4375,71302.2656,74158.4844,84341.9375,2070.5315,3412.0608,3402.1812,79645.5859,73178.3125,-3006.2871,350.867645
3915.2209,4029.1699,-1786.7760,1062.9371,78418.1406,85609.7500,105658.9922,64562.1641,3098.3093,3523.6406,3522.9253,3643.2896,80622.1797,71230.3359,74182.4453,84331.2969,2311.1926,3438.3018,3451.5786,79524.3047,73187.8750,-2951.9277,350.871643
909.8948,341.6911,3408.5962,3257.1631,78379.2969,85434.4688,105749.3203,64417.1211,3525.8311,3336.7578,3512.8894,3554.0613,80857.9688,70171.0156,74460.8984,83722.8594,3742.1514,3604.5986,3702.6780,78605.0234,73199.0313,-2818.8455,350.875641
-2084.7024,-2330.9292,5291.7979,3597.6472,78356.1797,85321.6328,105781.3672,64297.2266,3639.0649,3184.2742,3518.9468,3492.7058,80987.1875,69552.5938,74604.9141,83328.1016,4032.5005,3682.0920,3815.1968,78130.7188,73195.1406,-2771.9067,350.879639
1410.5515,1260.8842,2881.5645,2936.0803,78388.0156,85446.7344,105708.8828,64387.1914,3435.9548,3307.0076,3538.5269,3563.2031,80818.8984,70324.9297,74398.7813,83750.3516,3605.5820,3562.7561,3615.6628,78825.0781,73183.9688,-2893.4109,350.883636
4085.8987,4328.1245,-2149.7014,407.7405,78435.9141,85621.3047,105645.2891,64548.8164,3002.8228,3521.3608,3559.0010,3651.9619,80617.3750,71309.1953,74158.9297,84342.6953,1944.2888,3416.5535,3378.5332,79650.1016,73179.3438,-3012.0986,350.887634
3927.0449,4046.8054,-1778.2377,1069.9780,78425.2969,85613.2813,105663.6406,64566.9883,3059.9089,3536.8506,3532.1567,3651.1350,80630.7891,71234.8281,74187.2031,84333.8672,2193.6226,3442.7498,3442.4590,79524.5078,73187.8359,-2960.3096,350.891632
925.8316,363.1041,3422.9236,3265.8804,78374.2188,85427.1094,105743.0625,64410.3047,3518.7903,3324.0620,3509.4697,3550.8428,80856.6484,70163.5547,74454.9531,83711.9297,3741.1230,3608.1301,3705.1145,78602.8828,73197.2891,-2808.7202,350.895630
4078.9473,4322.8271,-2139.3525,450.5664,78429.9453,85615.1797,105637.4688,64541.7109,3035.8362,3511.8167,3554.3296,3649.9055,80612.9922,71302.8672,74149.8750,84334.2031,2037.8755,3416.3076,3402.7625,79648.8750,73174.0859,-3005.1025,350.899628
908.2855,293.1655,3485.1509,3259.0408,78378.5547,85429.7734,105745.2266,64412.0469,3528.1111,3336.0872,3516.1528,3558.6436,80861.9922,70160.3828,74456.1875,83711.3906,3738.9326,3608.9348,3706.7014,78599.2109,73193.5547,-2813.8386,350.903625
1452.6174,1288.1757,2897.1660,2947.7927,78392.3516,85449.7969,105707.7656,64388.5117,3437.9888,3319.9492,3546.5735,3574.5579,80823.3047,70332.0625,74394.5156,83753.0313,3600.7317,3564.5220,3614.3665,78831.5391,73177.7734,-2907.4478,350.907623
4093.7219,4336.5288,-2128.2437,449.9406,78433.2500,85616.7031,105638.1406,64543.2539,3002.3757,3523.8418,3560.2305,3656.4546,80616.3906,71306.4453,74148.9844,84336.3438,1957.4093,3411.9714,3353.5886,79649.8828,73169.7969,-3012.6128,350.911621
842.1243,312.6562,3464.1404,3278.7327,78375.9219,85425.3906,105741.0938,64407.5117,3528.4910,3331.3933,3515.7727,3558.3306,80862.5938,70154.5000,74452.5391,83703.9063,3749.4380,3610.2983,3707.1931,78597.0234,73190.7656,-2816.9680,350.915619
1467.2578,1326.8889,2862.1184,2967.2163,78389.1094,85444.3203,105701.7734,64384.0195,3439.2852,3315.1436,3545.2324,3572.3899,80821.0234,70333.2969,74387.4063,83747.7109,3618.8591,3564.3655,3616.7581,78834.5547,73174.3594,-2901.0105,350.919617
4100.9414,4345.9390,-2168.4543,398.5986,78432.7813,85614.0156,105635.0313,64541.2422,2919.3835,3523.0818,3561.6609,3656.2087,80617.1328,71309.5469,74145.5156,84333.2656,1903.8992,3402.6731,3304.1243,79651.1953,73166.8906,-3018.2007,350.923615
3932.1633,4051.9912,-1659.4829,1034.0364,78428.6250,85609.8828,105660.9609,64564.1953,3043.6816,3549.4792,3542.1702,3660.7239,80639.7969,71230.4453,74183.3594,84324.3906,2221.9646,3430.4563,3347.3972,79519.1406,73179.2969,-2970.3232,350.927612
882.1116,344.9545,3541.4773,3269.5684,78372.8125,85417.5469,105736.0000,64402.0781,3528.5134,3326.7217,3515.8176,3555.6035,80862.5938,70153.2500,74447.3516,83695.2578,3749.2590,3610.4324,3706.3662,78594.7656,73187.1172,-2811.1340,350.931610
-2089.7764,-2314.4114,5298.5703,3605.1128,78353.1016,85310.9531,105769.4766,64287.0586,3640.5625,3184.0283,3524.1548,3497.8467,80990.2500,69552.5000,74590.1797,83312.8594,4036.9260,3685.6013,3815.0627,78132.2656,73181.9766,-2780.7581,350.935608
1491.1742,1378.6108,2879.8210,2985.5894,78392.5469,85444.6563,105702.4688,64385.6055,3446.7729,3330.9685,3549.9934,3574.7815,80823.6406,70341.0703,74386.6719,83750.6016,3609.4714,3561.2139,3613.3159,78831.3594,73167.3125,-2909.3477,350.939606
4105.3223,4351.2808,-2134.5244,516.4370,78428.7813,85607.8281,105629.8047,64536.2773,3028.7507,3518.9468,3558.5764,3653.1689,80614.7188,71308.9219,74138.7656,84327.5156,2017.7142,3416.7769,3397.4873,79649.5000,73162.9766,-3006.0637,350.943604
3926.2402,4054.1145,-1735.6576,1144.2528,78419.9297,85600.5156,105651.3984,64554.3633,3111.3181,3535.2859,3535.0847,3655.4937,80634.2031,71219.8984,74173.4531,84312.0313,2343.8708,3445.0967,3453.4561,79512.2344,73172.0313,-2965.1152,350.947601
884.0115,396.6764,3482.3794,3283.8958,78378.5781,85422.6172,105739.3516,64405.1875,3535.8669,3343.0386,3523.3723,3565.2148,80868.9922,70149.5859,74450.5078,83696.7734,3758.5127,3611.2371,3707.6401,78588.4375,73181.6875,-2821.9299,350.951599
-2052.4265,-2296.6641,5299.0620,3607.2361,78351.8281,85309.8750,105766.1953,64284.1719,3640.0486,3182.7988,3523.9758,3501.9148,80989.9375,69545.7969,74585.6641,83308.5000,4038.4683,3687.5459,3816.7615,78131.9063,73179.0938,-2767.2576,350.955597
1531.8320,1371.1454,2818.6890,2901.2339,78388.5000,85442.5781,105696.5469,64380.7773,3442.4143,3321.2009,3546.7971,3576.5249,80821.0000,70336.0859,74379.7422,83745.7031,3569.5288,3562.6221,3614.2322,78835.3828,73165.7266,-2906.0620,350.959595
4113.4585,4359.8418,-2198.7634,373.7659,78436.4922,85615.8047,105634.2500,64541.8672,2970.4573,3538.6609,3567.5842,3664.5459,80621.5781,71311.3359,74142.8359,84333.9297,1811.1841,3403.0083,3308.5723,79649.0547,73159.2500,-3027.2979,350.963593
3925.3462,4040.7930,-1703.6276,1166.1799,78419.9297,85598.5703,105649.4297,64552.3047,3058.7915,3539.2644,3536.0459,3657.1477,80635.5469,71214.8047,74171.5313,84307.5547,2278.5144,3431.3057,3350.8169,79508.0156,73168.8359,-2960.7566,350.967590
883.8103,334.0915,3515.5940,3294.8481,78371.4297,85412.7188,105731.6563,64396.6914,3532.8718,3327.1240,3516.5774,3557.3022,80865.4766,70141.4063,74443.4688,83683.8984,3763.7432,3613.6064,3709.4954,78584.3047,73180.6563,-2810.9775,350.971588
-2084.3000,-2308.4658,5306.8403,3615.2605,78359.0469,85313.2734,105770.9297,64289.3594,3649.2351,3198.9146,3532.3579,3506.3628,80997.4453,69555.6094,74590.3359,83313.0625,4040.2117,3689.7813,3818.8625,78131.5703,73178.1328,-2786.3237,350.975586
1530.8710,1423.7390,2824.8804,2963.3943,78391.5000,85440.9688,105697.1484,64382.4336,3448.2930,3330.1863,3551.0886,3576.5471,80823.9297,70347.0625,74378.7344,83747.2656,3615.2605,3564.5220,3615.8416,78837.3047,73164.1875,-2905.8831,350.979584
4112.2515,4360.2441,-2180.3679,515.2747,78427.3281,85603.0859,105624.7500,64532.5898,3056.1987,3519.7068,3559.1799,3653.4148,80615.4531,71310.7344,74131.9063,84321.8672,2029.4490,3418.6321,3400.5273,79648.3359,73157.4609,-3006.9131,350.983582
4112.2515,4360.2441,-2180.3679,515.2747,78427.3281,85603.0859,105624.7500,64532.5898,3056.1987,3519.7068,3559.1799,3653.4148,80615.4531,71310.7344,74131.9063,84321.8672,2029.4490,3418.6321,3400.5273,79648.3359,73157.4609,-3006.9131,350.987579
3934.8679,4056.6851,-1695.8938,1197.1147,78423.0781,85598.5469,105651.3047,64553.7148,3127.2324,3545.3665,3540.6726,3659.1816,80640.1484,71216.9922,74172.5391,84306.3047,2244.3608,3448.8293,3457.1665,79502.7578,73165.4844,-2967.1716,350.991577
948.7421,412.5909,3522.3667,3309.9802,78373.3906,85412.5391,105732.0391,64396.5117,3534.8835,3336.7354,3520.8020,3560.6997,80868.4766,70137.3828,74442.5234,83680.7500,3747.8511,3613.0251,3709.2720,78575.5234,73173.3047,-2812.9670,350.995575
-2040.5131,-2287.2317,5293.2505,3604.1963,78345.7656,85300.8281,105757.2500,64275.5469,3637.7017,3177.7920,3519.9080,3496.4609,80986.5391,69539.2891,74574.7813,83296.2109,4034.9592,3685.5566,3814.4146,78123.0313,73168.8984,-2768.0847,350.999573
1517.0800,1384.3105,2795.3313,2940.0366,78387.1875,85439.1172,105691.2031,64377.5586,3441.7886,3327.5264,3547.2664,3576.6367,80819.8125,70338.8828,74371.0703,83742.5313,3575.3403,3561.0574,3610.5220,78834.1094,73157.5000,-2907.5596,351.003571
4106.2612,4355.8184,-2195.9248,525.0872,78428.3828,85605.9297,105623.5703,64532.3438,3073.9683,3527.8428,3560.8787,3659.0251,80615.8750,71303.9375,74129.1797,84321.5938,1971.2673,3416.2183,3395.0063,79645.5000,73152.3594,-3009.3494,351.007568
3901.5193,4014.4402,-1646.9883,1244.3887,78413.9844,85590.9922,105641.8750,64543.8555,3141.5823,3529.9661,3531.7544,3654.3760,80634.0234,71199.8281,74162.5078,84293.0547,2352.8115,3448.0024,3458.7983,79497.6172,73162.1719,-2954.3865,351.011566
807.3226,228.5242,3563.2256,3320.1951,78371.8281,85410.7969,105729.5156,64393.2070,3537.1187,3333.9636,3519.3491,3561.3032,80868.8750,70127.6797,74439.8203,83674.1094,3763.8772,3615.0146,3711.3953,78570.4453,73171.3359,-2816.4761,351.015564
-2054.7288,-2316.7805,5302.0571,3613.8970,78353.9063,85306.8125,105762.9766,64281.6250,3646.3069,3193.1477,3528.8040,3505.4910,80994.4688,69545.9297,74579.5625,83301.9297,4039.9436,3690.8540,3819.0413,78125.9609,73170.0859,-2777.5842,351.019562
1552.5745,1412.9431,2810.8660,2962.1873,78388.3281,85437.5938,105690.4453,64377.5820,3439.6204,3324.7996,3549.5239,3578.0447,80822.0703,70346.6563,74368.9688,83741.9922,3593.8699,3566.9583,3615.2380,78841.0391,73159.6953,-2905.7043,351.023560
4116.2524,4364.6919,-2193.8906,468.2467,78431.5547,85605.3672,105624.7266,64533.8438,3007.6282,3531.5308,3565.3042,3660.4780,80620.4141,71312.8594,74129.8516,84322.2422,1904.9050,3413.6702,3347.5984,79648.5859,73153.0781,-3018.6477,351.027557
3911.2646,4018.9329,-1650.3857,1207.3071,78418.9219,85590.5938,105644.7109,64546.4258,3134.5637,3542.1255,3537.9680,3655.7842,80640.1484,71205.8594,74165.3906,84293.4297,2232.8052,3446.6611,3436.4688,79492.3906,73159.4063,-2962.6343,351.031555
818.0738,244.7069,3567.5171,3323.2349,78365.7500,85400.0703,105722.6484,64385.4492,3533.4978,3323.9724,3514.5435,3551.7815,80866.5313,70122.9219,74433.6328,83662.2188,3746.5098,3614.6792,3711.9316,78561.9063,73166.7578,-2808.4741,351.035553
-2029.4490,-2311.5278,5298.2124,3609.9854,78348.9219,85299.1484,105756.4688,64275.3008,3643.6248,3188.0740,3524.9817,3498.0256,80991.6094,69544.0078,74573.2188,83293.5469,4036.8591,3687.9482,3816.6272,78119.2578,73163.7578,-2779.2158,351.039551
1603.5812,1420.9227,2794.0798,2965.9424,78387.7891,85435.0234,105687.5625,64375.8594,3445.2754,3333.3604,3549.3228,3575.1167,80820.9297,70348.3359,74364.9922,83740.1797,3603.1682,3562.6892,3613.0029,78834.3984,73151.6016,-2907.9841,351.043549
4110.6196,4359.7524,-2194.4719,520.3710,78423.7266,85596.5859,105615.8125,64525.6836,3046.9004,3521.8748,3557.6377,3652.2524,80614.3125,71305.8359,74120.0156,84312.0547,2021.6929,3418.0063,3397.7556,79642.0781,73146.7266,-3007.0024,351.047546
3899.2170,4009.7463,-1680.9852,1160.3014,78414.0703,85585.2969,105638.9219,64540.4570,3140.3752,3535.9565,3534.3694,3652.5879,80638.0078,71196.7891,74159.5781,84284.5781,2359.4724,3448.4941,3456.2500,79486.3984,73154.9297,-2962.6343,351.051544
781.0370,217.2142,3554.7766,3281.7053,78370.0391,85403.0859,105725.0859,64387.4609,3540.6726,3335.5955,3520.4668,3558.2412,80872.3203,70119.5000,74435.8672,83662.1094,3765.8889,3615.6851,3712.8035,78558.8438,73164.7188,-2813.6821,351.055542
-2045.2292,-2295.5242,5291.6636,3605.6492,78343.3281,85293.2266,105749.3594,64268.4844,3639.1096,3180.2732,3520.4890,3495.5669,80987.7891,69536.6797,74564.9922,83285.3672,4035.1826,3686.4954,3814.3250,78116.4609,73158.7578,-2771.3926,351.059540
1596.9426,1469.4707,2681.0247,2863.3477,78383.1641,85430.4844,105680.7891,64370.2070,3435.2170,3328.5100,3546.4170,3574.2449,80817.1094,70346.3672,74356.5156,83735.0859,3584.5269,3558.7104,3606.0515,78833.1484,73144.6094,-2913.9075,351.063538
4121.7285,4371.6211,-2269.4397,448.0630,78428.4453,85599.5078,105617.7578,64528.5234,3018.2678,3537.7000,3564.2314,3659.2263,80618.2266,71310.2422,74120.2578,84315.4063,1947.5745,3407.5457,3335.0142,79638.4375,73140.0469,-3019.3406,351.067535
3896.7136,4007.2876,-1612.6783,1239.2700,78411.3438,85579.9297,105635.3906,64536.3008,3160.7153,3532.1121,3531.6201,3649.3916,80637.2656,71192.4063,74155.3516,84277.2734,2365.5073,3446.6611,3433.5408,79478.7578,73151.1094,-2955.2134,351.071533
757.8806,223.8751,3603.4141,3314.2717,78368.1172,85398.5703,105722.6953,64384.1094,3542.4160,3331.6838,3517.8738,3554.0166,80872.8359,70115.5859,74433.5391,83654.7734,3768.7944,3617.8755,3715.5750,78550.0625,73162.3047,-2818.0408,351.075531
-2014.0262,-2304.9788,5301.2075,3615.7969,78352.6484,85298.7266,105756.2891,64275.6563,3649.8833,3200.7473,3530.2344,3502.4065,80996.5703,69546.5313,74571.0703,83291.5391,4037.2612,3689.4683,3817.5662,78114.3594,73158.1953,-2785.6309,351.079529
1669.2729,1466.4979,2739.7202,2944.0376,78382.9375,85427.1563,105678.7969,64369.0430,3442.3027,3327.6382,3546.9758,3572.7698,80817.5547,70351.8906,74353.0547,83732.7188,3595.9263,3562.9797,3612.0195,78834.7109,73144.3594,-2904.6538,351.083527
4117.9956,4366.7261,-2230.9053,437.0660,78422.3906,85592.0000,105610.7813,64521.8398,2986.3271,3528.0662,3558.7998,3652.5654,80613.9297,71307.2734,74112.5234,84306.4219,1884.7438,3414.6982,3349.9229,79633.3828,73135.1953,-3015.3396,351.087524
3897.0042,4000.4258,-1662.3439,1147.7173,78414.2344,85580.7813,105636.3516,64537.3086,3047.9731,3546.2383,3535.6882,3652.1184,80640.2188,71189.9219,74156.0469,84275.9297,2239.5105,3445.2979,3375.8733,79468.1172,73143.1953,-2965.2271,351.091522
752.8514,198.7294,3576.1226,3293.4846,78362.3750,85391.5078,105716.2188,64377.0664,3536.6270,3325.9619,3513.2471,3549.6804,80869.1016,70103.4063,74426.7500,83643.5781,3772.9966,3616.6016,3712.1775,78539.3984,73155.2656,-2805.8813,351.095520
-2116.1289,-2333.7456,5293.8765,3610.4548,78346.2109,85293.5156,105749.1875,64268.7070,3645.4800,3188.9009,3524.3335,3498.6067,80992.1484,69537.1484,74563.3828,83282.2813,4036.8367,3689.9600,3818.0579,78110.9375,73154.7109,-2783.0603,351.099518
1501.4561,1396.7157,2663.3892,2893.5674,78392.5234,85437.9766,105685.7500,64377.1797,3452.6292,3349.9229,3557.3472,3585.1079,80825.8516,70357.5000,74358.7734,83742.4375,3602.2964,3564.1643,3613.4053,78836.8359,73143.4453,-2926.6033,351.103516
4119.5605,4369.5200,-2278.2014,511.9443,78426.8359,85596.6250,105613.6875,64525.2148,3062.3677,3536.1353,3563.8962,3660.1204,80619.0313,71307.5625,74114.1563,84309.5000,2036.1321,3420.3533,3404.0142,79636.6016,73137.5625,-3014.1772,351.107513
3891.5950,3987.3276,-1598.4178,1285.6947,78407.5938,85574.2344,105629.7813,64529.9531,3148.1760,3531.3074,3529.4297,3648.3633,80636.9766,71178.3438,74148.8438,84264.9375,2394.8552,3451.3774,3462.5085,79463.6641,73142.2813,-2953.9170,351.111511
778.9583,203.6244,3621.9661,3327.6157,78367.3125,85395.1953,105719.6797,64379.7930,3547.0205,3338.8364,3519.1702,3555.6707,80874.8906,70100.8984,74429.4922,83644.0938,3773.9578,3617.6968,3715.2622,78531.7813,73151.3984,-2818.9795,351.115509
-2044.2457,-2281.6660,5292.9600,3610.6782,78345.1172,85290.2109,105746.4766,64266.0234,3645.4128,3192.7007,3524.4229,3498.0256,80991.5859,69535.1797,74558.8438,83278.3984,4034.3557,3688.1719,3815.5098,78104.1016,73148.0938,-2775.4607,351.119507
1636.0806,1510.4861,2686.1655,2907.9619,78379.3203,85423.1563,105671.8672,64363.8789,3432.4231,3326.3865,3544.7629,3572.1438,80815.0781,70351.5547,74343.1094,83727.9297,3561.1021,3561.7952,3606.3198,78832.9453,73137.1875,-2903.9385,351.123505
4127.3838,4378.4609,-2268.1880,405.9300,78426.9063,85594.3047,105611.8984,64524.0742,2977.4980,3539.9351,3564.9915,3659.0476,80619.7422,71310.9375,74111.2109,84307.7813,1796.4767,3418.5874,3342.9492,79631.6406,73131.9063,-3022.8721,351.127502
3896.1101,3996.5811,-1592.9865,1261.5771,78414.4766,85577.2734,105634.9688,64534.8945,3061.8982,3545.3442,3537.9458,3653.7278,80645.0469,71184.0000,74153.5625,84267.5078,2238.5942,3455.1101,3393.4417,79460.7578,73141.7188,-2960.4661,351.131500
774.1526,193.7449,3632.8289,3338.7024,78358.3516,85383.1875,105710.6250,64369.7578,3537.4763,3320.9773,3511.8835,3546.3052,80870.3750,70091.9141,74420.7813,83629.4063,3776.6401,3618.9932,3714.5244,78525.5391,73148.0469,-2802.1040,351.135498
-2071.4924,-2315.9758,5291.1050,3609.6501,78342.7734,85286.1406,105742.6563,64262.5820,3644.2729,3191.3149,3523.9758,3495.8799,80991.3438,69533.9063,74555.0469,83273.1406,4033.1934,3687.2332,3814.5261,78100.7500,73143.4219,-2780.1770,351.139496
1552.9098,1430.1539,2675.4814,2914.8687,78379.2500,85421.7734,105669.4141,64362.8086,3438.3240,3334.3660,3546.8640,3572.9932,80815.2109,70352.8750,74339.7344,83726.5938,3574.2449,3558.3306,3606.0291,78830.0391,73130.2344,-2909.4148,351.143494
4113.0112,4365.0498,-2263.0022,458.9707,78415.4844,85582.3906,105599.5859,64512.3633,3048.1296,3522.5007,3555.4919,3649.6597,80611.5000,71300.8359,74098.7109,84293.7422,1951.1731,3415.7488,3398.6050,79627.2188,73125.4922,-3009.3047,351.147491
3880.7322,3971.8379,-1535.9448,1217.4995,78407.0547,85569.4297,105626.4063,64526.2188,3145.5833,3537.0071,3532.9390,3648.9668,80641.2266,71173.1797,74145.6953,84256.3750,2321.5640,3450.0364,3462.9333,79453.1406,73134.7266,-2959.9744,351.151489
767.5365,147.8791,3672.6375,3327.7500,78360.0469,85383.2344,105710.2656,64369.2891,3542.8855,3329.3816,3516.7339,3551.5132,80874.5078,70088.0078,74420.5547,83626.8359,3763.0054,3617.6521,3715.6868,78521.0703,73143.6875,-2807.5354,351.155487
-2036.9814,-2285.0857,5288.0649,3606.5879,78337.6797,85280.1953,105736.3281,64256.5703,3640.2273,3181.9048,3521.0925,3494.6504,80989.1094,69529.6563,74547.6016,83265.4297,4034.0649,3688.1047,3815.0403,78100.0313,73140.2266,-2774.6113,351.159485
1627.4528,1508.2063,2707.7795,2925.2173,78378.5781,85420.5859,105667.1094,64361.4219,3431.7527,3334.6118,3548.1157,3575.3625,80815.9453,70355.2891,74335.7734,83725.3828,3557.0117,3559.1353,3601.6929,78830.7578,73126.7656,-2915.4719,351.163483
4124.8804,4377.1421,-2241.9023,484.1611,78418.8594,85584.0000,105600.9453,64514.2852,3034.0703,3534.1907,3561.2139,3655.8735,80615.8359,71304.3203,74098.4922,84295.7813,1897.1266,3415.1228,3358.1484,79625.8516,73121.1328,-3014.1550,351.167480
3873.6914,3972.9106,-1572.2440,1271.8365,78402.9453,85563.7266,105621.6641,64520.9023,3156.6921,3529.4968,3530.8604,3647.6035,80640.7969,71167.5703,74140.5078,84248.3516,2376.6387,3452.0032,3454.9536,79449.5156,73131.6875,-2956.5994,351.171478
658.2142,125.6839,3655.0242,3327.7500,78359.2422,85381.0000,105708.4844,64366.8516,3545.2996,3327.7500,3517.7844,3551.9827,80876.9688,70084.0938,74418.9688,83621.6094,3777.0647,3619.7085,3717.5645,78517.0078,73141.2734,-2815.9622,351.175476
-2060.8308,-2286.1587,5293.2280,3613.1816,78342.1016,85282.3828,105738.0547,64258.9844,3645.2117,3194.4219,3528.0662,3500.2607,80993.9766,69532.7891,74548.6094,83266.8594,4035.0039,3688.7976,3815.0181,78098.1797,73136.1094,-2780.1992,351.179474
1669.7870,1549.8475,2638.7126,2902.2397,78374.2891,85415.1953,105660.6016,64356.0781,3431.6184,3328.1970,3546.4170,3573.0156,80813.2188,70354.8203,74328.3750,83719.3984,3566.7349,3558.6211,3604.4646,78831.2266,73121.9375,-2908.6101,351.183472
4130.4233,4384.0933,-2290.5173,413.5743,78417.7422,85581.8984,105597.7031,64511.9609,2985.5671,3532.0449,3562.4434,3655.9407,80616.6563,71305.2109,74095.2031,84292.3125,1857.8546,3410.6526,3339.9988,79625.7656,73118.0078,-3019.4299,351.187469
3880.7991,3982.9465,-1479.7301,1246.4673,78407.6797,85565.1797,105623.7891,64523.3359,3144.5327,3542.2820,3538.5940,3653.1018,80647.0156,71169.2734,74142.6563,84248.4844,2340.5181,3448.5610,3422.0967,79446.3203,73128.3984,-2960.0862,351.191467
688.8584,146.8063,3720.7607,3329.4263,78356.9844,85375.5000,105704.7031,64362.7188,3545.5901,3322.9219,3518.3657,3550.7310,80878.1719,70079.8203,74415.5234,83613.4219,3774.5391,3622.0107,3720.2019,78514.2109,73139.0859,-2808.1614,351.195465
-2046.8833,-2261.5718,5294.7705,3613.6733,78341.0938,85279.5703,105735.1016,64256.5234,3646.0835,3192.7900,3529.5190,3500.4841,80995.4063,69533.7969,74545.6563,83262.9297,4036.2332,3689.7363,3815.8450,78098.5781,73133.3203,-2786.0779,351.199463
1711.6295,1622.6696,2716.3181,2974.0112,78383.4531,85421.7031,105666.3672,64363.3672,3445.0520,3348.5818,3558.1069,3583.6328,80822.1406,70366.4844,74333.0000,83727.6406,3577.8884,3561.7056,3607.4373,78836.9922,73121.9375,-2918.3555,351.203461
4137.7324,4392.3413,-2230.3018,568.8295,78418.1641,85579.9766,105596.4063,64511.4688,3069.3191,3532.3130,3565.0137,3659.0027,80619.1406,71307.6719,74092.5859,84290.2109,1992.9038,3421.6497,3403.1423,79629.9844,73119.0547,-3010.3328,351.207458
685.3939,183.2396,3668.7705,3339.2834,78365.9063,85382.9453,105711.6797,64369.2891,3556.2070,3342.2339,3529.3628,3562.4656,80888.2578,70081.1875,74421.6719,83617.8984,3790.0957,3625.8328,3723.7559,78510.9219,73137.4063,-2819.3149,351.211456
-2031.7288,-2263.5388,5293.5186,3614.7463,78339.4844,85277.6250,105732.1328,64253.6875,3645.2117,3189.4597,3529.6533,3503.2112,80995.9453,69530.5938,74541.1641,83258.7031,4038.4236,3692.3516,3817.9685,78099.6953,73132.0703,-2775.8630,351.215454
1715.8540,1592.2041,2598.0103,2852.7529,78376.3203,85415.9375,105658.0781,64355.8320,3436.7146,3336.8025,3552.2732,3580.9951,80816.8203,70360.9219,74323.0781,83720.0000,3531.4636,3559.2021,3604.3081,78836.7266,73116.8906,-2917.1484,351.219452
4141.6885,4397.3926,-2315.5513,438.7424,78420.8438,85582.9453,105596.6328,64512.3867,3028.4377,3546.2383,3569.3276,3665.0378,80621.2891,71306.7813,74091.4219,84291.7813,1830.0714,3411.6360,3341.5632,79625.1172,73110.9922,-3024.0569,351.223450
3878.4299,3976.1741,-1531.4073,1397.3640,78403.0781,85558.6563,105617.3281,64516.2734,3166.6609,3536.3589,3537.2305,3654.1077,80648.0000,71157.1563,74135.2109,84235.6953,2444.8337,3453.8584,3426.1648,79439.6406,73123.0781,-2951.5925,351.227448
693.7534,139.0502,3698.1853,3352.1133,78358.1016,85374.5000,105703.2734,64360.3945,3552.7202,3327.9065,3522.9700,3556.6094,80884.2344,70070.0156,74413.9609,83605.5156,3793.0015,3625.9893,3723.6665,78506.4297,73133.7188,-2814.2856,351.231445
-2036.8473,-2252.2510,5299.7324,3622.3013,78345.4297,85281.9375,105735.3047,64257.8438,3652.9231,3207.4529,3537.5210,3509.6709,81001.7344,69534.7344,74544.3203,83262.5000,4037.4177,3691.4575,3816.5825,78096.7891,73126.8828,-2795.3091,351.235443
1769.9675,1686.3496,2607.1743,2926.9609,78377.5703,85414.4844,105656.9141,64356.1016,3440.6040,3342.1667,3555.2908,3582.1575,80818.5625,70366.0625,74320.9766,83719.6172,3582.9846,3561.0798,3606.0740,78838.1953,73114.0938,-2911.5605,351.239441
4142.8511,4398.8901,-2301.0227,527.9035,78413.1797,85572.8672,105587.8906,64504.5391,3062.5913,3529.9438,3562.7786,3656.9688,80616.5000,71303.9844,74082.4609,84281.0078,1968.8757,3419.2803,3399.0745,79623.7500,73108.3047,-3010.0869,351.243439
3885.9399,3993.7202,-1546.2936,1360.2153,78407.6563,85559.7891,105619.5859,64518.8672,3152.1995,3547.2217,3543.2654,3657.2593,80653.7188,71159.9531,74138.3438,84235.8281,2319.1721,3458.3511,3468.6777,79433.2031,73119.1250,-2965.6516,351.247437
730.9244,209.6817,3691.8599,3357.5896,78357.7031,85369.8672,105701.0859,64357.9805,3551.2451,3331.4604,3524.0876,3555.1118,80885.8828,70068.1797,74411.9531,83599.7891,3784.0608,3625.2517,3723.2417,78498.5391,73128.6016,-2809.8601,351.251434
-2010.8970,-2251.1558,5286.9248,3611.3264,78333.5625,85267.6094,105722.8125,64245.3711,3641.9485,3184.6987,3526.2781,3497.9138,80993.4688,69528.1797,74531.1328,83247.6406,4035.8979,3690.2283,3815.5320,78094.1797,73123.0781,-2774.3430,351.255432
1717.1504,1604.0952,2578.9666,2862.6548,78375.6719,85411.2422,105653.0078,64353.0391,3439.2180,3344.9607,3554.2402,3581.2634,80816.9297,70367.6719,74315.5234,83717.1797,3528.2004,3556.5872,3601.2905,78833.9063,73106.2031,-2918.5342,351.259430
4138.4478,4396.1411,-2315.2383,496.6781,78413.7422,85571.9531,105587.2031,64504.2031,3092.7883,3540.2256,3565.5725,3660.7239,80618.5625,71305.0313,74080.7891,84280.7813,1912.3258,3415.7935,3397.9568,79619.7969,73102.5625,-3015.2725,351.263428
3855.4971,3946.7815,-1515.0906,1357.1085,78367.9609,85523.0469,105591.7813,64491.5742,3163.9788,3523.4619,3527.1052,3643.6248,80638.9219,71140.7969,74119.0781,84206.4609,2408.5344,3443.6885,3451.9810,79425.2031,73113.3594,-2950.5867,351.267426
648.4464,38.6015,3714.4797,3340.8928,78301.5313,85321.2578,105666.6172,64325.0781,3537.2976,3319.5469,3511.6602,3544.5171,80871.6484,70047.9766,74394.2500,83566.5078,3760.2339,3601.4248,3690.5635,78490.0234,73123.4844,-2811.9612,351.271423
-2002.2692,-2264.1646,5288.3779,3604.1516,78281.1250,85224.1172,105692.1406,64217.6328,3630.5491,3185.3247,3519.5950,3492.7505,80982.6953,69515.2891,74516.9844,83221.4844,4002.8843,3664.6355,3782.7644,78089.7969,73119.1719,-2777.0923,351.275421
1757.1824,1639.7239,2590.1423,2860.2185,78315.2578,85361.3984,105615.6953,64319.4453,3404.4165,3324.8442,3539.6892,3568.5901,80800.4375,70353.7656,74295.0938,83684.9922,3485.0391,3535.8447,3560.6550,78836.0781,73107.0078,-2908.2747,351.279419
4143.2310,4400.3652,-2312.4890,337.0866,78357.5000,85526.0000,105553.7188,64474.2305,2905.3467,3528.7815,3554.9778,3650.1292,80605.3750,71293.5703,74064.3828,84252.2344,1562.2305,3379.7849,3200.8591,79618.7656,73101.8906,-3017.9548,351.283417
3868.9973,3959.1868,-1507.2898,1289.2709,78345.3672,85505.5703,105581.0547,64482.2305,3092.2297,3531.5532,3530.0332,3644.5188,80639.7266,71138.7578,74116.7734,84196.5391,2112.5081,3432.7361,3361.4341,79423.2109,73113.6250,-2957.5156,351.287415
663.4668,85.5178,3726.0134,3350.4817,78293.7734,85314.3672,105661.6328,64319.8477,3535.5317,3311.7461,3510.1401,3540.8516,80871.4922,70044.7578,74390.0234,83557.4766,3746.1074,3606.3198,3694.8997,78487.0078,73122.9063,-2804.6746,351.291412
-1980.0292,-2255.6038,5286.4111,3604.0398,78276.4531,85219.2891,105688.6094,64214.5273,3631.5996,3184.3635,3519.5725,3490.2917,80982.5547,69517.8594,74513.1328,83216.7031,4007.0864,3668.4128,3785.1113,78086.8906,73115.5234,-2781.0264,351.295410
1798.7789,1650.2739,2555.2737,2856.9329,78315.0078,85360.1016,105615.5000,64320.3828,3416.1511,3336.3105,3543.9136,3570.0876,80802.6016,70361.8594,74293.5938,83686.2266,3498.9644,3536.8281,3569.8193,78833.7969,73101.6250,-2916.4109,351.299408
4139.4980,4396.5654,-2323.1956,393.0331,78348.3828,85516.5000,105545.8047,64466.7656,2967.3950,3520.1313,3549.9487,3643.9824,80600.8359,71292.0234,74055.4844,84243.2969,1703.0017,3395.7886,3306.1357,79614.9922,73096.5469,-3008.3435,351.303406
3855.5417,3946.4910,-1508.2957,1253.9775,78337.9453,85498.2813,105574.7500,64475.7500,3124.7515,3527.0828,3527.2168,3641.5015,80637.2656,71132.6328,74110.2266,84187.2578,2275.4746,3436.9382,3396.9287,79415.8359,73106.9453,-2954.2971,351.307404
639.1481,43.9882,3732.4954,3317.1775,78292.3672,85312.9844,105660.4219,64318.4609,3540.2034,3320.7761,3513.7834,3544.6514,80873.5938,70039.4141,74388.3203,83553.6563,3761.1279,3605.4033,3695.3245,78478.9375,73115.6406,-2805.1663,351.311401
-1975.9165,-2240.5164,5280.9795,3601.8047,78269.7500,85214.9922,105682.5781,64209.0938,3628.9397,3177.8816,3517.1140,3490.1130,80980.1250,69511.3984,74506.1406,83209.7109,4007.7571,3669.3516,3786.9666,78085.6406,73112.0156,-2773.8291,351.315399
1807.2502,1690.8871,2485.5361,2832.8823,78309.3594,85358.3594,105610.2266,64316.1602,3408.7080,3332.5332,3542.3267,3571.4063,80800.4609,70357.3672,74287.0938,83682.2266,3498.4055,3536.3364,3564.0525,78835.0000,73098.1563,-2914.6450,351.319397
4144.5049,4402.4443,-2359.9194,411.3168,78347.2891,85518.3047,105544.4453,64466.2070,2944.4846,3530.1003,3553.3462,3649.7268,80602.1328,71287.4922,74052.9141,84242.7422,1667.1942,3379.4272,3229.2905,79611.7734,73090.2656,-3010.9363,351.323395
3851.7195,3941.7075,-1463.1451,1332.4545,78332.1563,85495.0156,105570.0547,64470.7656,3129.3113,3521.6736,3525.1382,3641.6130,80636.4609,71122.4922,74105.1953,84179.5938,2277.3521,3433.7642,3386.7361,79412.0156,73104.0859,-2950.0054,351.327393
585.2357,33.7064,3761.9326,3350.0569,78290.2031,85312.8047,105659.2422,64316.6523,3543.8914,3319.7927,3515.2363,3546.8640,80876.7031,70033.8281,74387.6953,83549.2734,3766.2463,3608.9348,3700.2417,78476.9688,73115.3281,-2815.1797,351.331390
-1955.9788,-2251.5806,5292.5352,3614.9475,78277.3906,85222.6406,105689.5078,64216.5820,3640.0933,3198.6687,3529.4744,3501.6243,80989.8906,69519.8203,74512.2656,83217.1953,4012.7192,3674.2244,3792.1746,78088.6328,73111.7500,-2787.4636,351.335388
1874.9984,1697.2573,2545.8188,2882.4810,78308.9531,85357.5547,105609.7109,64316.7617,3420.0627,3334.2097,3546.7747,3575.0720,80803.3672,70364.9219,74285.1953,83682.6953,3512.8223,3542.9077,3576.8154,78841.5938,73098.6094,-2910.4653,351.339386
4154.0493,4411.0493,-2337.1206,376.2693,78349.6563,85520.1406,105547.0156,64469.5352,2905.9727,3534.1235,3560.0515,3655.0242,80608.6328,71297.2813,74055.0156,84245.3125,1617.3052,3388.1890,3206.7375,79618.6094,73093.6875,-3020.2346,351.343384
3865.4883,3950.9836,-1496.8739,1257.1738,78342.7969,85503.2891,105580.1172,64481.0469,3038.8088,3545.6794,3540.3596,3654.1523,80650.0313,71134.1797,74115.2500,84188.3125,2202.6750,3426.3210,3270.8201,79414.0938,73106.6563,-2966.9033,351.347382
605.8887,41.6413,3756.1436,3333.4497,78287.4297,85308.1094,105657.1172,64314.0820,3544.4949,3316.9316,3516.7786,3547.0430,80878.9766,70032.4609,74385.3984,83543.2188,3777.9141,3613.7852,3703.9075,78475.8281,73114.9453,-2805.8813,351.351379
-2046.8610,-2272.1440,5285.6064,3610.1865,78269.3438,85215.3047,105681.8125,64209.2070,3636.0698,3187.4927,3525.4512,3497.9585,80986.4688,69515.7344,74504.2813,83208.3906,4013.8813,3675.1855,3792.8896,78087.7813,73107.8594,-2784.5803,351.355377
1743.5924,1646.3624,2471.9912,2867.7957,78313.0703,85362.6250,105611.9688,64320.5391,3423.9741,3351.0852,3555.0225,3583.8562,80808.3672,70370.9141,74286.3125,83688.0781,3525.3394,3542.5056,3576.9048,78843.6328,73094.5391,-2925.3069,351.359375
4148.4165,4406.8477,-2365.1721,473.1864,78340.1328,85511.7578,105537.2031,64460.4844,2963.0142,3525.8982,3554.6201,3651.4702,80602.0859,71288.1563,74043.8203,84235.1406,1772.7391,3398.6497,3313.5566,79613.4453,73084.4609,-3006.4436,351.363373
3862.5825,3943.7864,-1442.3357,1382.3213,78327.0781,85489.6953,105565.2969,64465.6914,3122.7173,3524.8030,3528.9155,3644.7646,80639.2344,71114.9297,74100.0547,84169.5625,2323.7097,3441.4756,3401.8684,79402.8047,73094.4297,-2954.6995,351.367371
663.3104,80.9357,3786.5864,3366.9773,78289.1719,85311.0156,105657.9453,64314.6602,3551.7590,3331.3708,3523.6182,3554.0613,80883.0938,70026.8047,74386.2422,83542.1875,3776.7517,3611.5054,3703.8181,78468.4141,73106.4063,-2819.7395,351.371368
-1931.1683,-2197.3552,5277.2466,3610.9241,78268.2266,85213.5625,105679.1328,64206.5664,3636.4275,3189.8396,3529.6980,3498.0032,80987.5000,69512.9141,74500.3516,83204.4297,4012.6074,3674.8726,3793.0461,78092.8828,73103.5469,-2779.9312,351.375366
1942.0536,1801.2152,2420.6045,2816.2749,78304.1484,85350.7344,105600.9922,64307.7539,3406.9868,3330.5886,3553.1897,3565.4607,80802.3594,70361.2344,74273.1484,83672.2969,3468.8564,3540.6504,3566.5337,78859.3672,73089.1094,-2913.8628,351.379364
4172.5786,4428.8193,-2399.4373,360.9359,78347.9609,85517.5469,105543.0313,64466.1406,2898.8870,3541.4326,3568.5901,3656.9688,80612.2578,71295.5781,74048.8203,84239.9922,1565.2032,3390.9160,3206.2905,79623.5234,73084.7031,-3024.7498,351.383362
3882.6768,3964.8865,-1506.9769,1375.3252,78332.6016,85489.7891,105568.4688,64466.5195,3050.9236,3532.4919,3541.5444,3641.1213,80647.8594,71114.8438,74102.2422,84166.0938,2251.9158,3430.6128,3293.9094,79416.9297,73095.4063,-2955.4817,351.387360
696.7933,101.1640,3735.5127,3359.0647,78279.5859,85296.3516,105647.2578,64301.0703,3542.2820,3307.8569,3520.9360,3535.1741,80879.4688,70014.7813,74374.5781,83522.5625,3781.1550,3612.6228,3703.1028,78479.2109,73103.8125,-2802.2827,351.391357
-2006.4266,-2256.6768,5284.1533,3615.6851,78267.6719,85212.1563,105677.9688,64206.1445,3639.1321,3195.8970,3533.6096,3501.6912,80990.9375,69517.6328,74498.4297,83203.5625,4014.7307,3675.7666,3793.7615,78092.4297,73100.0156,-2790.1235,351.395355
1797.1472,1681.6558,2444.8337,2864.3535,78307.5703,85354.4688,105603.6328,64312.8750,3424.8459,3346.4136,3560.1411,3577.8884,80808.1016,70372.3672,74274.3516,83678.3828,3508.8438,3543.6008,3578.1565,78858.4688,73086.4219,-2921.5293,351.399353
4162.7441,4419.4536,-2378.5383,476.0027,78336.9141,85506.7109,105532.2813,64456.1484,3019.1841,3524.9817,3561.2139,3651.2468,80605.8438,71290.1719,74036.7734,84227.8281,1775.2426,3402.8071,3349.8782,79623.0547,73079.3828,-3008.4329,351.403351
3874.0488,3945.2615,-1454.4727,1379.2814,78326.0781,85483.4844,105562.0078,64460.2813,3147.0808,3528.3123,3538.5715,3640.6296,80645.7578,71108.0234,74095.6719,84157.4219,2267.0928,3443.8672,3427.8411,79409.4219,73087.8359,-2954.7664,351.407349
679.6718,70.8103,3776.5730,3370.2854,78279.0000,85295.4375,105646.3438,64300.1563,3547.1995,3315.9482,3524.2217,3540.4714,80882.8672,70011.0234,74374.0156,83519.2109,3763.1172,3612.4666,3705.0698,78472.5938,73097.9375,-2807.8259,351.411346
-1910.6271,-2182.5583,5271.9941,3606.9680,78256.0703,85200.1719,105665.9453,64193.9844,3630.2361,3177.9485,3526.1887,3491.8564,80983.9219,69507.0625,74486.0234,83188.4531,4012.7415,3673.7102,3791.5486,78092.8359,73092.9297,-2776.1089,351.415344
1963.8019,1825.2657,2471.2981,2879.8657,78300.7969,85347.6953,105595.6719,64305.6328,3411.0996,3339.9092,3557.8611,3571.9426,80804.4375,70369.0781,74265.5938,83670.5547,3481.1499,3540.2927,3565.4160,78862.2500,73079.5156,-2919.0483,351.419342
4174.9482,4433.4458,-2359.6064,511.8102,78339.0859,85508.4531,105533.3984,64458.3594,3001.5933,3536.6941,3567.4277,3657.0581,80610.9141,71295.0000,74037.5156,84230.0625,1728.2815,3402.4048,3298.7373,79625.6484,73076.6094,-3014.0432,351.423340
3863.8564,3946.2227,-1421.5486,1433.3279,78322.7891,85479.7031,105559.1953,64457.4883,3153.9204,3522.3667,3539.0410,3641.8367,80648.4219,71106.3984,74093.1953,84151.6094,2358.0195,3449.6116,3427.8857,79412.2578,73088.9297,-2951.3020,351.427338
587.0909,41.1049,3805.5408,3373.7051,78278.2422,85293.7813,105645.4922,64299.1055,3550.5073,3316.5071,3527.2617,3544.0925,80886.8672,70009.9063,74373.3281,83515.1875,3783.2114,3617.0261,3709.9648,78473.6875,73097.4922,-2810.9775,351.431335
-1923.4122,-2183.4524,5276.2856,3614.5452,78259.8047,85202.6797,105668.4063,64197.0234,3636.1816,3191.0020,3533.5647,3499.2324,80989.8906,69512.0703,74487.3906,83190.8203,4015.4014,3676.1912,3793.9402,78096.8828,73091.4531,-2781.2722,351.435333
1987.8746,1850.2327,2399.1021,2856.7092,78295.7891,85342.2656,105590.1484,64300.6914,3408.6187,3333.3826,3555.5588,3569.9758,80802.6953,70369.0078,74258.7031,83665.1016,3487.1401,3541.7009,3572.6580,78868.0859,73077.8828,-2913.8628,351.439331
4173.8081,4432.5518,-2400.7783,419.8552,78333.8984,85503.3281,105527.7656,64453.1289,2929.1067,3532.7603,3564.9915,3655.7842,80609.0156,71291.2891,74031.0313,84223.5156,1649.2681,3389.9995,3247.3284,79624.2422,73070.8203,-3018.6252,351.443329
3872.6631,3952.4365,-1366.5632,1374.6993,78322.2734,85477.8516,105557.4922,64455.6328,3143.3257,3530.7039,3542.8184,3645.4128,80650.8594,71101.6797,74090.9531,84147.6953,2282.8506,3440.1570,3388.2786,79408.7969,73081.7500,-2955.5935,351.447327
653.3862,74.3866,3836.1851,3366.5303,78270.3516,85285.2656,105637.4453,64290.5195,3546.0371,3306.6724,3523.3501,3540.9856,80884.0547,69998.9297,74365.0547,83503.1875,3772.6167,3615.9309,3709.8306,78471.3359,73091.8750,-2800.4053,351.451324
-1879.7593,-2147.6897,5274.1396,3612.6899,78253.5625,85197.5391,105661.6328,64190.7891,3633.2312,3185.2129,3530.7261,3498.3384,80987.5000,69506.9063,74480.1016,83183.6719,4014.2168,3674.5374,3792.7332,78096.9688,73085.4219,-2784.1555,351.455322
2036.6238,1913.7787,2477.6907,2907.2466,78295.8984,85342.8047,105588.3594,64300.3320,3418.3191,3344.0667,3559.5823,3575.0942,80804.3047,70370.6016,74255.4688,83665.5469,3500.0149,3539.6221,3573.3733,78870.0469,73070.9531,-2919.3835,351.459320
4172.7354,4433.9155,-2344.4072,560.9393,78326.4297,85496.3594,105519.8984,64445.8672,3008.1648,3526.1663,3560.9233,3653.9961,80605.2578,71285.5703,74021.7813,84215.1328,1801.4612,3402.1143,3346.1455,79625.3125,73065.4609,-3006.0637,351.463318
3860.1909,3945.6863,-1456.0597,1448.9294,78317.6484,85474.2734,105553.1563,64450.7148,3152.5793,3527.6641,3541.1421,3646.0388,80651.0391,71095.1719,74086.5313,84140.7891,2402.8794,3448.5610,3432.1997,79406.4219,73077.3516,-2958.7227,351.467316
574.5292,45.9999,3793.7615,3369.4807,78277.1016,85291.5938,105643.4844,64296.0859,3557.2129,3325.4700,3533.5872,3552.2957,80894.1094,70001.4609,74370.9766,83507.2969,3791.7944,3619.6638,3713.6750,78471.3203,73090.3125,-2814.3303,351.471313
-1904.9274,-2173.5505,5275.1904,3615.5286,78252.2031,85195.7734,105660.0703,64189.3125,3634.4829,3184.5422,3532.6707,3501.7805,80990.2891,69507.8438,74477.6641,83180.9609,4019.0000,3678.8289,3796.9800,78102.0469,73085.3281,-2780.5347,351.475311
2026.3644,1883.2686,2352.5657,2782.0991,78294.5625,85342.3359,105586.5313,64299.5078,3415.9946,3343.2844,3561.2363,3579.0730,80806.5391,70375.6484,74252.6953,83665.2344,3449.0752,3541.8796,3573.5073,78876.7969,73070.2422,-2927.8103,351.479309
4185.1851,4447.0356,-2426.6619,463.2399,78333.5859,85503.1094,105525.5078,64452.5273,2987.2212,3546.3052,3571.7417,3665.3730,80614.1328,71294.4844,74026.6094,84222.1719,1662.2322,3392.2795,3264.9863,79628.7813,73063.0000,-3023.8333,351.483307
3862.6719,3941.9983,-1398.9063,1512.7437,78313.1328,85468.4219,105548.7969,64446.3125,3174.9758,3523.2383,3539.5327,3644.9658,80650.7266,71090.5703,74081.6797,84132.5703,2413.1167,3444.9402,3399.6780,79404.3438,73074.2891,-2948.2173,351.487305
606.9839,32.7006,3832.5193,3382.9587,78267.5391,85281.5781,105634.2969,64286.5430,3553.0554,3312.2825,3526.6357,3545.9253,80889.4219,69991.7578,74362.1953,83493.6641,3793.9402,3619.3284,3713.6975,78465.1484,73083.6953,-2811.3577,351.491302
-1869.0752,-2127.0142,5279.7056,3622.2788,78254.3281,85197.1094,105660.3359,64190.4766,3639.6016,3199.1379,3538.2139,3506.9663,80993.8672,69510.9297,74477.5781,83181.8125,4017.9495,3677.1523,3794.8567,78100.3672,73078.3750,-2792.6716,351.495300
2108.7305,2000.1681,2366.2002,2868.0864,78288.2109,85335.1797,105579.1094,64293.0469,3414.1394,3338.7024,3558.1294,3576.4131,80802.9844,70374.3047,74244.1563,83658.2813,3500.6853,3541.3879,3574.8484,78879.2813,73065.1250,-2912.6333,351.499298
4183.2407,4446.5220,-2415.4189,484.9881,78324.3984,85494.1250,105516.1406,64443.4063,2951.9724,3532.2683,3565.0361,3660.0532,80609.5703,71289.5000,74017.2813,84211.9844,1692.6082,3403.0305,3295.6528,79630.4766,73059.5156,-3016.9043,351.503296
3865.6223,3954.0906,-1436.6807,1433.8867,78318.3672,85472.8906,105552.6875,64450.0664,3077.2764,3540.4939,3547.9592,3653.3479,80658.5000,71092.6719,74085.9922,84135.5625,2241.8352,3450.4163,3351.2639,79402.8516,73070.1484,-2967.9316,351.507294
601.5302,64.9542,3815.3979,3381.9307,78263.8047,85276.5313,105630.3359,64281.9141,3550.1946,3312.9753,3526.3005,3546.2605,80889.4219,69984.8984,74357.5234,83486.0234,3792.5320,3618.9932,3711.4399,78460.1172,73076.8828,-2803.3779,351.511292
-1902.6028,-2164.4758,5270.7197,3615.1262,78243.4844,85186.7656,105649.8516,64180.1055,3632.1135,3181.7708,3530.1226,3501.1995,80987.6328,69502.8594,74465.8359,83169.2266,4017.7930,3677.2642,3795.2813,78100.1875,73072.8594,-2779.3499,351.515289
2004.8844,1883.6709,2334.2820,2802.0815,78292.5469,85340.3203,105582.0156,64297.1602,3421.8062,3354.0356,3565.6843,3585.3984,80808.5078,70380.6094,74245.4766,83663.5391,3455.6689,3541.6338,3574.8931,78882.7266,73060.9688,-2931.9675,351.519287
4184.2017,4448.6899,-2430.7075,521.7568,78326.7266,85496.5156,105517.7969,64445.8867,3018.4019,3542.2373,3570.4900,3667.2729,80614.0469,71292.0469,74017.2188,84213.5703,1742.5867,3406.8081,3344.0667,79633.8984,73057.8594,-3019.9666,351.523285
3847.2268,3918.5288,-1372.3300,1555.5249,78308.2422,85463.1406,105543.5703,64440.3906,3153.1382,3521.8079,3540.3821,3648.0281,80654.1250,71081.5859,74076.4531,84121.8828,2434.8872,3455.1101,3436.2229,79403.1406,73069.1016,-2951.1230,351.527283
579.1560,-35.4499,3859.9673,3405.1541,78265.6563,85278.6328,105631.5703,64282.8789,3558.4424,3320.3962,3530.9050,3551.7815,80894.7344,69983.0000,74359.0000,83484.9922,3801.0481,3621.2283,3716.8491,78460.1641,73075.7188,-2814.1738,351.531281
-1864.7836,-2142.5710,5276.5313,3623.5977,78247.9141,85190.6328,105652.8516,64183.8125,3638.7522,3195.6958,3537.4316,3509.0227,80993.5781,69507.1719,74467.7813,83172.2500,4020.8105,3679.7451,3798.2542,78102.9375,73071.4063,-2784.1555,351.535278
