Fp1,Fp2,F3,F4,C3,C4,P3,P4,O1,O2,F7,F8,T7,T8,P7,P8,Fz,Cz,Pz,AFz,Cpz,POz,TimeStamp,Event,EventFile,EventTime
121234.0938,120529.8516,123063.0703,126098.7266,186605.7969,187500.0000,187500.0000,187500.0000,112386.3750,78784.7578,120769.0000,124255.4219,187500.0000,183575.8594,187500.0000,168033.5625,146520.1719,137924.2500,144640.7656,187500.0000,187500.0000,187500.0000,30.703735,NaN,NaN,NaN
120884.9609,118025.6563,123357.0625,125140.3516,186878.0781,187500.0000,187500.0000,187500.0000,112739.4688,78910.8828,121249.6250,123958.7500,187500.0000,183527.3906,187500.0000,167818.4844,146147.2500,137685.0156,144542.6094,185343.6094,187500.0000,187500.0000,30.707733,NaN,NaN,NaN
120943.9688,118404.4297,123305.8516,125247.1719,186841.2813,187500.0000,187500.0000,187500.0000,112676.0547,78869.1797,121171.0156,123984.6719,187500.0000,183528.6719,187500.0000,167814.8594,146202.9844,137714.4844,144522.8281,185769.8125,187500.0000,187500.0000,30.711731,NaN,NaN,NaN
121303.3359,121071.8203,122968.9453,126237.0391,186543.9219,187500.0000,187500.0000,187500.0000,112270.7734,78693.4688,120634.6641,124278.0391,187500.0000,183571.5781,187500.0000,168016.1719,146590.9844,137953.6406,144593.7188,187500.0000,187500.0000,187500.0000,30.715729,NaN,NaN,NaN
121442.0078,122264.2188,122803.7656,126701.5078,186400.3750,187500.0000,187500.0000,187500.0000,112078.0391,78609.5625,120377.2188,124411.9531,187500.0000,183592.5938,187500.0000,168133.4844,146756.0938,138055.6719,144645.3125,187500.0000,187500.0000,187500.0000,30.719727,NaN,NaN,NaN
121191.1328,120507.4844,123015.7031,126061.6406,186599.1094,187500.0000,187500.0000,187500.0000,112335.3047,78727.6484,120718.1016,124220.8203,187500.0000,183573.4844,187500.0000,168027.6250,146492.0469,137891.0156,144608.5469,187500.0000,187500.0000,187500.0000,30.723724,NaN,NaN,NaN
120848.2969,117996.5547,123320.0000,125106.4844,186881.1406,187500.0000,187500.0000,187500.0000,112698.1875,78871.4766,121209.9531,123930.3594,187500.0000,183532.0000,187500.0000,167819.7813,146118.5156,137651.9219,144512.0000,185349.2188,187500.0000,187500.0000,30.727722,NaN,NaN,NaN
120892.7344,118333.0625,123262.4922,125191.0859,186837.6406,187500.0000,187500.0000,187500.0000,112629.8984,78811.2188,121127.3594,123943.1484,187500.0000,183523.9688,187500.0000,167802.9844,146167.5938,137676.5313,144489.1563,185737.5625,187500.0000,187500.0000,30.731720,NaN,NaN,NaN
121251.0781,121000.6953,122923.9531,126179.7969,186538.9531,187500.0000,187500.0000,187500.0000,112224.1484,78635.3359,120589.5156,124235.5547,187500.0000,183563.7344,187500.0000,168003.3438,146553.2500,137913.2969,144557.0469,187500.0000,187500.0000,187500.0000,30.735718,NaN,NaN,NaN
121399.8281,122222.8906,122763.2656,126659.6406,186400.3594,187500.0000,187500.0000,187500.0000,112034.1172,78566.7578,120334.9297,124378.9141,187500.0000,183588.1406,187500.0000,168129.8906,146722.4375,138018.3125,144609.8594,187500.0000,187500.0000,187500.0000,30.739716,NaN,NaN,NaN
121143.2109,120477.5078,122964.6719,126018.8203,186588.9531,187500.0000,187500.0000,187500.0000,112280.7188,78665.9141,120663.3828,124181.8359,187500.0000,183561.8906,187500.0000,168017.5938,146461.1563,137855.7188,144573.6719,187500.0000,187500.0000,187500.0000,30.743713,NaN,NaN,NaN
120802.5469,117963.0703,123272.7500,125064.5313,186875.3125,187500.0000,187500.0000,187500.0000,112649.1875,78814.8828,121160.0625,123893.1641,187500.0000,183524.2813,187500.0000,167813.8281,146088.5156,137618.1719,144479.1719,185361.7813,187500.0000,187500.0000,30.747711,NaN,NaN,NaN
120850.5156,118273.6484,123227.9375,125144.6172,186844.0625,187500.0000,187500.0000,187500.0000,112593.2188,78776.3281,121093.0938,123909.1484,187500.0000,183523.3438,187500.0000,167803.1406,146132.8125,137639.8906,144455.6094,185712.1250,187500.0000,187500.0000,30.751709,NaN,NaN,NaN
121198.6641,120923.6250,122881.5234,126120.6953,186537.0625,187500.0000,187500.0000,187500.0000,112179.4688,78580.2344,120547.5547,124191.1797,187500.0000,183557.0781,187500.0000,167992.4844,146517.1719,137875.8750,144523.0469,187500.0000,187500.0000,187500.0000,30.755707,NaN,NaN,NaN
121353.2734,122175.8828,122718.8750,126612.6328,186396.5156,187500.0000,187500.0000,187500.0000,111987.7813,78510.3438,120288.9297,124339.0625,187500.0000,183584.5938,187500.0000,168122.5000,146691.0000,137983.6875,144576.9531,187500.0000,187500.0000,187500.0000,30.759705,NaN,NaN,NaN
121107.4688,120462.9375,122924.5078,125989.0234,186589.5625,187500.0000,187500.0000,187500.0000,112236.8438,78627.7578,120620.0859,124152.3359,187500.0000,183563.9844,187500.0000,168019.7969,146431.3750,137821.2500,144539.8125,187500.0000,187500.0000,187500.0000,30.763702,NaN,NaN,NaN
120752.4531,117921.6094,123222.3047,125017.3516,186865.1406,187500.0000,187500.0000,187500.0000,112594.8047,78753.3047,121107.2891,123851.4609,187500.0000,183515.5938,187500.0000,167802.0469,146054.8594,137580.5313,144443.5156,185364.1250,187500.0000,187500.0000,30.767700,NaN,NaN,NaN
120793.7188,118197.5625,123178.9141,125083.0859,186834.8906,187500.0000,187500.0000,187500.0000,112542.2109,78710.5938,121043.9219,123862.3672,187500.0000,183511.2344,187500.0000,167786.2188,146093.7500,137598.3906,144418.1719,185677.4844,187500.0000,187500.0000,30.771698,NaN,NaN,NaN
121154.5234,120857.1094,122845.7422,126070.4063,186541.1406,187500.0000,187500.0000,187500.0000,112141.0469,78542.9531,120512.2188,124156.9609,187500.0000,183554.1875,187500.0000,167988.3906,146478.6406,137835.0000,144486.1250,187500.0000,187500.0000,187500.0000,30.775696,NaN,NaN,NaN
121301.9531,122123.7109,122669.7031,126561.3594,186387.5938,187500.0000,187500.0000,187500.0000,111934.9141,78450.6875,120238.1641,124298.5391,187500.0000,183573.1719,187500.0000,168109.4688,146655.4375,137944.5625,144540.0781,187500.0000,187500.0000,187500.0000,30.779694,NaN,NaN,NaN
121056.7969,120431.4844,122870.1250,125944.1875,186575.6563,187500.0000,187500.0000,187500.0000,112179.6875,78558.6641,120562.0391,124112.8594,187500.0000,183551.0000,187500.0000,168006.8438,146399.9844,137784.9844,144504.4688,187500.0000,187500.0000,187500.0000,30.783691,NaN,NaN,NaN
120718.3047,117898.4297,123186.7422,124987.2422,186869.9688,187500.0000,187500.0000,187500.0000,112556.4063,78720.2969,121069.0469,123827.7891,187500.0000,183516.6719,187500.0000,167807.2813,146025.4844,137546.7813,144411.4688,185373.3438,187500.0000,187500.0000,30.787689,NaN,NaN,NaN
121102.3281,120781.2031,122802.9609,126012.3125,186538.4219,187500.0000,187500.0000,187500.0000,112096.4766,78480.0156,120469.3906,124114.8281,187500.0000,183549.3750,187500.0000,167976.9531,146447.6406,137801.9375,144456.8906,187500.0000,187500.0000,187500.0000,30.791687,NaN,NaN,NaN
121268.2266,122090.0078,122637.9375,126527.7656,186396.3125,187500.0000,187500.0000,187500.0000,111900.6094,78416.9766,120204.7266,124271.4453,187500.0000,183582.6563,187500.0000,168115.1719,146629.2656,137914.7656,144512.3125,187500.0000,187500.0000,187500.0000,30.795685,NaN,NaN,NaN
121018.7344,120414.1172,122828.1719,125912.0469,186574.5000,187500.0000,187500.0000,187500.0000,112133.3750,78512.6484,120516.6641,124079.8672,187500.0000,183556.0313,187500.0000,168006.6406,146374.1094,137754.4375,144474.8125,187500.0000,187500.0000,187500.0000,30.799683,NaN,NaN,NaN
120661.1484,117851.2031,123129.3828,124933.0625,186853.1406,187500.0000,187500.0000,187500.0000,112495.4063,78642.7344,121008.8281,123777.0469,187500.0000,183507.0781,187500.0000,167788.9531,145992.2188,137509.8750,144376.1719,185378.2813,187500.0000,187500.0000,30.803680,NaN,NaN,NaN
121053.5156,120710.0781,122762.7266,125956.6328,186538.6719,187500.0000,187500.0000,187500.0000,112053.6250,78436.1563,120430.0313,124074.1484,187500.0000,183542.1719,187500.0000,167969.2031,146406.9531,137759.2969,144417.4844,187500.0000,187500.0000,187500.0000,30.807678,NaN,NaN,NaN
121211.2969,122031.7109,122583.6250,126469.8281,186382.4531,187500.0000,187500.0000,187500.0000,111843.8359,78344.4453,120148.8906,124224.1328,187500.0000,183564.7188,187500.0000,168097.2031,146593.3281,137875.5625,144474.5781,187500.0000,187500.0000,187500.0000,30.811676,NaN,NaN,NaN
120975.4609,120388.7031,122781.4609,125873.5313,186568.5313,187500.0000,187500.0000,187500.0000,112083.8672,78458.2891,120466.9375,124045.8047,187500.0000,183546.5000,187500.0000,168001.4531,146344.8281,137720.3750,144441.2344,187500.0000,187500.0000,187500.0000,30.815674,NaN,NaN,NaN
120975.4609,120388.7031,122781.4609,125873.5313,186568.5313,187500.0000,187500.0000,187500.0000,112083.8672,78458.2891,120466.9375,124045.8047,187500.0000,183546.5000,187500.0000,168001.4531,146344.8281,137720.3750,144441.2344,187500.0000,187500.0000,187500.0000,30.819672,NaN,NaN,NaN
120621.0938,117821.8281,123088.3047,124896.6953,186852.5781,187500.0000,187500.0000,187500.0000,112450.7969,78599.5938,120965.0469,123745.8906,187500.0000,183502.2500,187500.0000,167787.6563,145961.9844,137475.2031,144343.1563,185388.3281,187500.0000,187500.0000,30.823669,NaN,NaN,NaN
120621.0938,117821.8281,123088.3047,124896.6953,186852.5781,187500.0000,187500.0000,187500.0000,112450.7969,78599.5938,120965.0469,123745.8906,187500.0000,183502.2500,187500.0000,167787.6563,145961.9844,137475.2031,144343.1563,185388.3281,187500.0000,187500.0000,30.827667,NaN,NaN,NaN
120642.7344,117991.7734,123051.3359,124919.1328,186827.6094,187500.0000,187500.0000,187500.0000,112407.3203,78549.7266,120915.1328,123739.5469,187500.0000,183492.9063,187500.0000,167757.6094,145985.7344,137483.5781,144314.2813,185588.7188,187500.0000,187500.0000,30.831665,NaN,NaN,NaN
120642.7344,117991.7734,123051.3359,124919.1328,186827.6094,187500.0000,187500.0000,187500.0000,112407.3203,78549.7266,120915.1328,123739.5469,187500.0000,183492.9063,187500.0000,167757.6094,145985.7344,137483.5781,144314.2813,185588.7188,187500.0000,187500.0000,30.835663,NaN,NaN,NaN
121002.5078,120636.2266,122721.0000,125900.3125,186536.8281,187500.0000,187500.0000,187500.0000,112009.8438,78381.5938,120387.6953,124032.7734,187500.0000,183536.8906,187500.0000,167958.4219,146371.3125,137721.5156,144383.8438,187500.0000,187500.0000,187500.0000,30.839661,NaN,NaN,NaN
121002.5078,120636.2266,122721.0000,125900.3125,186536.8281,187500.0000,187500.0000,187500.0000,112009.8438,78381.5938,120387.6953,124032.7734,187500.0000,183536.8906,187500.0000,167958.4219,146371.3125,137721.5156,144383.8438,187500.0000,187500.0000,187500.0000,30.843658,NaN,NaN,NaN
121168.4688,121987.3672,122543.3906,126427.2969,186382.5625,187500.0000,187500.0000,187500.0000,111799.6875,78300.9063,120106.7344,124190.4453,187500.0000,183562.8281,187500.0000,168093.0625,146560.6563,137839.2500,144440.7500,187500.0000,187500.0000,187500.0000,30.847656,NaN,NaN,NaN
120923.2891,120356.2031,122725.7109,125827.8203,186553.3125,187500.0000,187500.0000,187500.0000,112024.3047,78389.3984,120407.2109,124003.5859,187500.0000,183533.5000,187500.0000,167986.9375,146311.7031,137682.4688,144404.1563,187500.0000,187500.0000,187500.0000,30.851654,NaN,NaN,NaN
120923.2891,120356.2031,122725.7109,125827.8203,186553.3125,187500.0000,187500.0000,187500.0000,112024.3047,78389.3984,120407.2109,124003.5859,187500.0000,183533.5000,187500.0000,167986.9375,146311.7031,137682.4688,144404.1563,187500.0000,187500.0000,187500.0000,30.855652,NaN,NaN,NaN
120569.9063,117782.1328,123035.9531,124849.9766,186840.8906,187500.0000,187500.0000,187500.0000,112395.6328,78538.4375,120909.9688,123705.5234,187500.0000,183489.3750,187500.0000,167775.7813,145926.0625,137435.0000,144304.5938,185390.6563,187500.0000,187500.0000,30.859650,NaN,NaN,NaN
120569.9063,117782.1328,123035.9531,124849.9766,186840.8906,187500.0000,187500.0000,187500.0000,112395.6328,78538.4375,120909.9688,123705.5234,187500.0000,183489.3750,187500.0000,167775.7813,145926.0625,137435.0000,144304.5938,185390.6563,187500.0000,187500.0000,30.863647,NaN,NaN,NaN
120594.2734,117924.6484,123010.8984,124866.7422,186827.4688,187500.0000,187500.0000,187500.0000,112363.9141,78506.0078,120875.3203,123702.6406,187500.0000,183485.3594,187500.0000,167751.0469,145947.4063,137442.8594,144277.2344,185554.5156,187500.0000,187500.0000,30.867645,NaN,NaN,NaN
120944.5000,120555.6484,122671.7969,125836.3125,186527.7344,187500.0000,187500.0000,187500.0000,111958.5859,78317.4688,120339.2422,123985.4766,187500.0000,183522.7969,187500.0000,167941.4375,146330.5781,137678.6875,144344.6250,187500.0000,187500.0000,187500.0000,30.871643,NaN,NaN,NaN
120944.5000,120555.6484,122671.7969,125836.3125,186527.7344,187500.0000,187500.0000,187500.0000,111958.5859,78317.4688,120339.2422,123985.4766,187500.0000,183522.7969,187500.0000,167941.4375,146330.5781,137678.6875,144344.6250,187500.0000,187500.0000,187500.0000,30.875641,NaN,NaN,NaN
121115.4453,121932.6094,122492.5859,126373.6484,186372.3438,187500.0000,187500.0000,187500.0000,111746.9375,78239.3516,120054.7891,124146.0547,187500.0000,183551.2969,187500.0000,168079.1719,146521.9219,137796.8906,144400.5313,187500.0000,187500.0000,187500.0000,30.879639,NaN,NaN,NaN
121115.4453,121932.6094,122492.5859,126373.6484,186372.3438,187500.0000,187500.0000,187500.0000,111746.9375,78239.3516,120054.7891,124146.0547,187500.0000,183551.2969,187500.0000,168079.1719,146521.9219,137796.8906,144400.5313,187500.0000,187500.0000,187500.0000,30.883636,NaN,NaN,NaN
120883.8438,120334.0313,122683.0000,125793.1328,186551.2969,187500.0000,187500.0000,187500.0000,111977.6953,78345.4297,120361.4766,123971.4688,187500.0000,183531.9375,187500.0000,167985.3125,146281.4063,137647.3125,144370.1094,187500.0000,187500.0000,187500.0000,30.887634,NaN,NaN,NaN
120525.3594,117748.1172,122990.5391,124808.6250,186835.9531,187500.0000,187500.0000,187500.0000,112346.8828,78480.9922,120861.8438,123668.9141,187500.0000,183486.2188,187500.0000,167769.7969,145898.8594,137403.7188,144275.0000,185403.0938,187500.0000,187500.0000,30.891632,NaN,NaN,NaN
120545.5469,117857.8594,122969.9766,124813.2344,186826.6406,187500.0000,187500.0000,187500.0000,112321.1563,78452.1172,120834.0391,123662.2031,187500.0000,183481.9063,187500.0000,167743.1563,145913.9219,137407.1719,144245.2344,185529.1094,187500.0000,187500.0000,30.895630,NaN,NaN,NaN
120545.5469,117857.8594,122969.9766,124813.2344,186826.6406,187500.0000,187500.0000,187500.0000,112321.1563,78452.1172,120834.0391,123662.2031,187500.0000,183481.9063,187500.0000,167743.1563,145913.9219,137407.1719,144245.2344,185529.1094,187500.0000,187500.0000,30.899628,NaN,NaN,NaN
120897.4063,120483.4063,122634.5859,125782.2656,186530.7344,187500.0000,187500.0000,187500.0000,111918.3750,78276.1406,120302.1797,123946.0547,187500.0000,183519.7344,187500.0000,167935.1094,146292.3125,137638.7031,144308.4375,187500.0000,187500.0000,187500.0000,30.903625,NaN,NaN,NaN
121067.0156,121883.0938,122447.0078,126324.8828,186367.1250,187500.0000,187500.0000,187500.0000,111698.0781,78181.5469,120007.0469,124105.2656,187500.0000,183545.5156,187500.0000,168069.7500,146490.5313,137762.3750,144367.8281,187500.0000,187500.0000,187500.0000,30.907623,NaN,NaN,NaN
121067.0156,121883.0938,122447.0078,126324.8828,186367.1250,187500.0000,187500.0000,187500.0000,111698.0781,78181.5469,120007.0469,124105.2656,187500.0000,183545.5156,187500.0000,168069.7500,146490.5313,137762.3750,144367.8281,187500.0000,187500.0000,187500.0000,30.911621,NaN,NaN,NaN
120840.7656,120312.2578,122635.9922,125756.2969,186545.1094,187500.0000,187500.0000,187500.0000,111928.3203,78289.3516,120310.7188,123935.8594,187500.0000,183528.1563,187500.0000,167980.8125,146253.6094,137615.0781,144338.2813,187500.0000,187500.0000,187500.0000,30.915619,NaN,NaN,NaN
120492.1016,117786.5156,122924.3281,124755.5391,186821.1719,187500.0000,187500.0000,187500.0000,112273.0078,78394.5391,120788.1328,123618.7578,187500.0000,183471.7344,187500.0000,167730.6875,145876.1563,137367.2969,144208.9531,185497.2031,187500.0000,187500.0000,30.919617,NaN,NaN,NaN
121028.7500,121842.0625,122411.4063,126285.8516,186371.7813,187500.0000,187500.0000,187500.0000,111659.3906,78146.2344,119970.5469,124076.3828,187500.0000,183546.3438,187500.0000,168070.8750,146458.1250,137726.5000,144334.1094,187500.0000,187500.0000,187500.0000,30.923615,NaN,NaN,NaN
120435.0156,117680.1875,122897.9297,124725.8828,186824.3906,187500.0000,187500.0000,187500.0000,112248.2188,78375.2266,120763.8359,123596.0234,187500.0000,183477.0313,187500.0000,167757.5469,145833.5781,137330.0313,144204.7969,185415.8906,187500.0000,187500.0000,30.927612,NaN,NaN,NaN
120972.6406,121783.9688,122357.8516,126229.1484,186358.4688,187500.0000,187500.0000,187500.0000,111603.4609,78076.1797,119915.0703,124029.7344,187500.0000,183533.5938,187500.0000,168053.4219,146420.6406,137685.6875,144295.2500,187500.0000,187500.0000,187500.0000,30.931610,NaN,NaN,NaN
120757.6641,120265.5469,122545.8672,125683.5859,186536.3125,187500.0000,187500.0000,187500.0000,111831.1172,78191.5625,120214.5859,123870.4766,187500.0000,183520.5938,187500.0000,167973.7969,146192.0469,137544.1094,144268.9063,187500.0000,187500.0000,187500.0000,30.935608,NaN,NaN,NaN
120392.2813,117653.2109,122839.3516,124648.0547,186816.3594,187500.0000,187500.0000,187500.0000,112183.8516,78289.3047,120702.7500,123539.1172,187500.0000,183459.8438,187500.0000,167713.3594,145803.6406,137289.8438,144138.6094,185440.4844,187500.0000,187500.0000,30.939606,NaN,NaN,NaN
120749.6172,120266.1484,122513.9766,125615.8828,186530.2344,187500.0000,187500.0000,187500.0000,111791.5547,78126.6328,120182.6016,123827.3203,187500.0000,183503.3750,187500.0000,167910.1250,146181.7969,137521.9688,144202.8750,187500.0000,187500.0000,187500.0000,30.943604,NaN,NaN,NaN
120703.3047,120230.7656,122488.1563,125634.9688,186518.9531,187500.0000,187500.0000,187500.0000,111769.4219,78114.4063,120152.9844,123823.8281,187500.0000,183506.7656,187500.0000,167956.7188,146161.4219,137508.7500,144234.2813,187500.0000,187500.0000,187500.0000,30.947601,NaN,NaN,NaN
120344.8984,117588.9688,122798.8672,124596.4609,186816.0781,187500.0000,187500.0000,187500.0000,112140.0391,78245.5000,120662.1797,123499.8438,187500.0000,183454.5938,187500.0000,167706.2344,145764.8125,137248.6094,144101.0625,185410.0156,187500.0000,187500.0000,30.951599,NaN,NaN,NaN
120877.0703,121684.7891,122267.3047,126132.4297,186348.7031,187500.0000,187500.0000,187500.0000,111506.7266,77970.4141,119821.6172,123950.5000,187500.0000,183518.9219,187500.0000,168035.7813,146350.5156,137608.8438,144222.1875,187500.0000,187500.0000,187500.0000,30.955597,NaN,NaN,NaN
120660.1641,120206.9844,122440.9297,125597.2188,186512.5156,187500.0000,187500.0000,187500.0000,111718.3516,78065.3906,120102.6875,123788.7813,187500.0000,183501.9844,187500.0000,167951.3594,146127.7031,137470.3906,144196.3750,187500.0000,187500.0000,187500.0000,30.959595,NaN,NaN,NaN
120297.0156,117525.0000,122757.9922,124544.7891,186815.2969,187500.0000,187500.0000,187500.0000,112096.7656,78192.3672,120620.6719,123461.2422,187500.0000,183452.7188,187500.0000,167698.9375,145731.9219,137213.2813,144069.2656,185386.0625,187500.0000,187500.0000,30.963593,NaN,NaN,NaN
120647.2891,120119.5859,122429.1719,125501.7109,186525.5000,187500.0000,187500.0000,187500.0000,111701.4063,78017.1953,120098.0000,123743.4531,187500.0000,183491.7969,187500.0000,167888.6875,146110.0781,137446.1719,144134.3281,187500.0000,187500.0000,187500.0000,30.967590,NaN,NaN,NaN
120833.1484,121638.5234,122226.2188,126087.8438,186347.9219,187500.0000,187500.0000,187500.0000,111462.8516,77914.5156,119779.0625,123915.7422,187500.0000,183518.1875,187500.0000,168031.2031,146324.8906,137579.6250,144195.1875,187500.0000,187500.0000,187500.0000,30.971588,NaN,NaN,NaN
120621.9922,120186.8672,122399.4219,125564.2500,186511.6250,187500.0000,187500.0000,187500.0000,111673.8281,78014.8047,120057.7891,123758.9688,187500.0000,183501.1094,187500.0000,167951.2031,146104.1563,137441.9688,144168.7188,187500.0000,187500.0000,187500.0000,30.975586,NaN,NaN,NaN
120257.4297,117553.2500,122714.1094,124564.5703,186802.7813,187500.0000,187500.0000,187500.0000,112050.3828,78163.2891,120568.9688,123452.9297,187500.0000,183454.2813,187500.0000,167735.4844,145710.1875,137189.7656,144069.8125,185457.7188,187500.0000,187500.0000,30.979584,NaN,NaN,NaN
120243.0391,117457.0234,122710.7578,124487.6563,186808.1406,187500.0000,187500.0000,187500.0000,112046.5156,78130.6563,120573.0859,123417.3672,187500.0000,183440.7188,187500.0000,167685.6719,145696.2188,137175.0000,144033.9375,185360.7500,187500.0000,187500.0000,30.983582,NaN,NaN,NaN
120593.6484,120042.5234,122384.5781,125441.6953,186521.0469,187500.0000,187500.0000,187500.0000,111655.1641,77960.2188,120053.9844,123699.2656,187500.0000,183481.0781,187500.0000,167875.9219,146071.2656,137405.3281,144097.0156,187500.0000,187500.0000,187500.0000,30.987579,NaN,NaN,NaN
120788.6406,121591.8125,122184.3125,126042.5781,186346.3906,187500.0000,187500.0000,187500.0000,111417.2266,77869.5859,119735.5859,123878.7969,187500.0000,183512.2344,187500.0000,168025.1406,146289.3438,137540.6719,144158.0469,187500.0000,187500.0000,187500.0000,30.991577,NaN,NaN,NaN
120571.2500,120156.6953,122344.6406,125519.0781,186497.5000,187500.0000,187500.0000,187500.0000,111615.0625,77948.3047,119999.3125,123715.6953,187500.0000,183489.3906,187500.0000,167937.5625,146071.1250,137404.3906,144131.4844,187500.0000,187500.0000,187500.0000,30.995575,NaN,NaN,NaN
120208.5234,117517.3984,122663.2188,124519.5547,186792.4531,187500.0000,187500.0000,187500.0000,111996.7188,78101.7500,120515.1250,123411.7969,187500.0000,183445.5156,187500.0000,167724.9063,145676.9063,137152.4375,144033.8750,185467.9688,187500.0000,187500.0000,30.999573,NaN,NaN,NaN
120196.7891,117394.8906,122671.0156,124437.5000,186808.6250,187500.0000,187500.0000,187500.0000,112004.2266,78087.7422,120532.9609,123379.8125,187500.0000,183435.8281,187500.0000,167679.7188,145657.7344,137134.0938,143996.5313,185332.7188,187500.0000,187500.0000,31.003571,NaN,NaN,NaN
120196.7891,117394.8906,122671.0156,124437.5000,186808.6250,187500.0000,187500.0000,187500.0000,112004.2266,78087.7422,120532.9609,123379.8125,187500.0000,183435.8281,187500.0000,167679.7188,145657.7344,137134.0938,143996.5313,185332.7188,187500.0000,187500.0000,31.007568,NaN,NaN,NaN
120538.2188,119963.5703,122338.2422,125379.8516,186514.5938,187500.0000,187500.0000,187500.0000,111605.7422,77899.5781,120007.0938,123653.3984,187500.0000,183468.3125,187500.0000,167859.9844,146031.6250,137363.7188,144058.8906,187500.0000,187500.0000,187500.0000,31.011566,NaN,NaN,NaN
120736.3594,121536.6875,122134.8438,125989.3594,186336.9688,187500.0000,187500.0000,187500.0000,111365.0391,77808.5000,119683.9531,123835.8828,187500.0000,183499.6094,187500.0000,168011.3281,146251.1250,137499.0781,144118.2813,187500.0000,187500.0000,187500.0000,31.015564,NaN,NaN,NaN
120532.3594,120137.3125,122301.9453,125485.9766,186495.2656,187500.0000,187500.0000,187500.0000,111568.2813,77907.0234,119953.3125,123685.6328,187500.0000,183486.1719,187500.0000,167936.5625,146039.1250,137367.2969,144095.1406,187500.0000,187500.0000,187500.0000,31.019562,NaN,NaN,NaN
120161.1641,117483.6953,122614.4219,124476.8828,186783.8438,187500.0000,187500.0000,187500.0000,111943.8125,78042.3672,120462.8906,123374.0000,187500.0000,183437.9844,187500.0000,167715.8125,145645.8906,137116.8906,143999.7656,185477.5000,187500.0000,187500.0000,31.023560,NaN,NaN,NaN
120145.3125,117327.1172,122627.0078,124382.3594,186804.3594,187500.0000,187500.0000,187500.0000,111957.8281,78030.2266,120487.8594,123337.9922,187500.0000,183429.2500,187500.0000,167668.6563,145621.4688,137095.3750,143961.4375,185303.3906,187500.0000,187500.0000,31.027557,NaN,NaN,NaN
120494.3828,119897.0078,122303.2422,125330.1406,186519.6875,187500.0000,187500.0000,187500.0000,111568.3047,77863.5078,119972.6016,123618.5313,187500.0000,183468.7969,187500.0000,167857.2656,145993.9063,137323.8125,144022.9219,187500.0000,187500.0000,187500.0000,31.031555,NaN,NaN,NaN
120683.5469,121481.6563,122084.7578,125936.1172,186327.2344,187500.0000,187500.0000,187500.0000,111311.5469,77746.4297,119632.3672,123791.6875,187500.0000,183490.3594,187500.0000,167997.0625,146214.8438,137459.4063,144080.8125,187500.0000,187500.0000,187500.0000,31.035553,NaN,NaN,NaN
120122.6484,117458.8125,122573.6953,124442.4609,186783.9375,187500.0000,187500.0000,187500.0000,111900.1797,78003.2734,120419.6406,123342.6406,187500.0000,183438.2500,187500.0000,167716.4844,145613.4688,137080.3438,143964.7031,185488.7188,187500.0000,187500.0000,31.039551,NaN,NaN,NaN
120093.3672,117260.4688,122581.7266,124326.8594,186799.4063,187500.0000,187500.0000,187500.0000,111909.8828,77973.7891,120442.5078,123294.8125,187500.0000,183422.4063,187500.0000,167657.6406,145585.0938,137056.6875,143926.2031,185278.7656,187500.0000,187500.0000,31.043549,NaN,NaN,NaN
120440.5156,119818.4922,122258.9844,125269.3828,186515.3750,187500.0000,187500.0000,187500.0000,111522.6172,77801.3672,119928.7500,123573.6484,187500.0000,183461.6406,187500.0000,167844.6250,145958.7031,137287.0000,143989.8438,187500.0000,187500.0000,187500.0000,31.047546,NaN,NaN,NaN
120649.5078,121442.6328,122054.2422,125900.4688,186337.0938,187500.0000,187500.0000,187500.0000,111278.7813,77716.8750,119600.9609,123765.6953,187500.0000,183495.2344,187500.0000,168003.4375,146185.7500,137427.2813,144050.7969,187500.0000,187500.0000,187500.0000,31.051544,NaN,NaN,NaN
120071.3125,117419.5469,122521.3281,124395.3906,186771.8594,187500.0000,187500.0000,187500.0000,111844.6641,77933.6250,120364.0938,123301.7422,187500.0000,183425.0625,187500.0000,167703.7969,145584.3438,137046.8281,143932.5156,185499.2656,187500.0000,187500.0000,31.055542,NaN,NaN,NaN
120050.5703,117203.9141,122545.3594,124281.4844,186803.1094,187500.0000,187500.0000,187500.0000,111871.3906,77935.2969,120405.7578,123262.5781,187500.0000,183418.3594,187500.0000,167655.9531,145550.1094,137019.0000,143891.7188,185253.9375,187500.0000,187500.0000,31.059540,NaN,NaN,NaN
120388.9688,119745.1328,122216.2734,125212.7500,186512.4688,187500.0000,187500.0000,187500.0000,111476.8438,77751.9688,119886.0547,123532.5234,187500.0000,183451.2813,187500.0000,167833.1875,145918.5469,137244.5781,143951.2344,187500.0000,187500.0000,187500.0000,31.063538,NaN,NaN,NaN
120590.3203,121379.3984,121997.5859,125836.5391,186304.4219,187500.0000,187500.0000,187500.0000,111214.4297,77636.8594,119539.5625,123712.9688,187500.0000,183475.4688,187500.0000,167973.5625,146140.1406,137380.2500,144003.0313,187500.0000,187500.0000,187500.0000,31.067535,NaN,NaN,NaN
120400.1953,120057.4531,122158.0703,125357.4766,186426.0313,187500.0000,187500.0000,187500.0000,111401.4922,77731.8516,119791.2188,123568.3281,187500.0000,183459.2969,187500.0000,167893.2969,145921.5938,137241.7813,143962.7969,187500.0000,187500.0000,187500.0000,31.071533,NaN,NaN,NaN
120031.7266,117393.3047,122477.6719,124347.8047,186717.0625,187500.0000,187500.0000,187500.0000,111783.3047,77881.0313,120308.8438,123259.6719,187500.0000,183414.2031,187500.0000,167676.5156,145523.7969,136988.2656,143865.5000,185508.8594,187500.0000,187500.0000,31.075531,NaN,NaN,NaN
119993.5469,117129.7734,122493.8359,124207.8125,186739.1406,187500.0000,187500.0000,187500.0000,111803.0000,77856.3516,120344.5391,123204.2422,187500.0000,183397.4375,187500.0000,167612.7969,145484.7031,136957.6250,143823.9219,185224.7188,187500.0000,187500.0000,31.079529,NaN,NaN,NaN
120340.4219,119670.8750,122175.3906,125144.3047,186458.7813,187500.0000,187500.0000,187500.0000,111419.8672,77691.9531,119836.8359,123481.7813,187500.0000,183438.2813,187500.0000,167799.5625,145854.3125,137184.8125,143885.2813,187500.0000,187500.0000,187500.0000,31.083527,NaN,NaN,NaN
120547.2891,121331.9453,121956.6094,125783.5000,186266.5313,187500.0000,187500.0000,187500.0000,111160.6563,77587.1719,119491.7031,123670.3203,187500.0000,183467.0938,187500.0000,167952.6563,146087.2656,137328.5156,143946.4844,187500.0000,187500.0000,187500.0000,31.087524,NaN,NaN,NaN
120347.9531,120023.6563,122102.8359,125309.3984,186404.5625,187500.0000,187500.0000,187500.0000,111341.5703,77660.5313,119731.9844,123523.5781,187500.0000,183446.8906,187500.0000,167877.5938,145888.6875,137205.0156,143925.8906,187500.0000,187500.0000,187500.0000,31.091522,NaN,NaN,NaN
120347.9531,120023.6563,122102.8359,125309.3984,186404.5625,187500.0000,187500.0000,187500.0000,111341.5703,77660.5313,119731.9844,123523.5781,187500.0000,183446.8906,187500.0000,167877.5938,145888.6875,137205.0156,143925.8906,187500.0000,187500.0000,187500.0000,31.095520,NaN,NaN,NaN
119983.7344,117359.1484,122427.8984,124303.8359,186705.2344,187500.0000,187500.0000,187500.0000,111730.5547,77821.5313,120256.2500,123220.0234,187500.0000,183404.9063,187500.0000,167667.8438,145491.6094,136952.0000,143830.3125,185519.8125,187500.0000,187500.0000,31.099518,NaN,NaN,NaN
119983.7344,117359.1484,122427.8984,124303.8359,186705.2344,187500.0000,187500.0000,187500.0000,111730.5547,77821.5313,120256.2500,123220.0234,187500.0000,183404.9063,187500.0000,167667.8438,145491.6094,136952.0000,143830.3125,185519.8125,187500.0000,187500.0000,31.103516,NaN,NaN,NaN
119947.3672,117068.5078,122454.5000,124158.0781,186737.7813,187500.0000,187500.0000,187500.0000,111760.9766,77813.3906,120305.1328,123167.2266,187500.0000,183391.8750,187500.0000,167608.0313,145447.8750,136918.2500,143787.8281,185197.6250,187500.0000,187500.0000,31.107513,NaN,NaN,NaN
119947.3672,117068.5078,122454.5000,124158.0781,186737.7813,187500.0000,187500.0000,187500.0000,111760.9766,77813.3906,120305.1328,123167.2266,187500.0000,183391.8750,187500.0000,167608.0313,145447.8750,136918.2500,143787.8281,185197.6250,187500.0000,187500.0000,31.111511,NaN,NaN,NaN
120284.4141,119589.5156,122129.3672,125081.8125,186450.6250,187500.0000,187500.0000,187500.0000,111371.7656,77629.8828,119791.1094,123435.6484,187500.0000,183426.1875,187500.0000,167784.5313,145816.1563,137144.9531,143849.1875,187500.0000,187500.0000,187500.0000,31.115509,NaN,NaN,NaN
120500.2422,121280.0234,121913.3203,125735.6250,186261.5469,187500.0000,187500.0000,187500.0000,111115.2813,77533.4609,119447.0234,123632.1875,187500.0000,183461.2813,187500.0000,167945.2344,146054.4688,137292.6406,143912.8906,187500.0000,187500.0000,187500.0000,31.119507,NaN,NaN,NaN
120500.2422,121280.0234,121913.3203,125735.6250,186261.5469,187500.0000,187500.0000,187500.0000,111115.2813,77533.4609,119447.0234,123632.1875,187500.0000,183461.2813,187500.0000,167945.2344,146054.4688,137292.6406,143912.8906,187500.0000,187500.0000,187500.0000,31.123505,NaN,NaN,NaN
120309.9609,120004.1875,122061.4844,125277.2969,186402.0156,187500.0000,187500.0000,187500.0000,111296.6875,77618.0859,119687.3984,123493.2031,187500.0000,183447.0000,187500.0000,167877.8906,145860.0781,137171.6719,143893.5469,187500.0000,187500.0000,187500.0000,31.127502,NaN,NaN,NaN
119935.5000,117324.2813,122378.2813,124260.4922,186694.2344,187500.0000,187500.0000,187500.0000,111677.4453,77759.6797,120203.5000,123180.4844,187500.0000,183398.8281,187500.0000,167658.2813,145461.8906,136918.0625,143798.0938,185531.9375,187500.0000,187500.0000,31.131500,NaN,NaN,NaN
119935.5000,117324.2813,122378.2813,124260.4922,186694.2344,187500.0000,187500.0000,187500.0000,111677.4453,77759.6797,120203.5000,123180.4844,187500.0000,183398.8281,187500.0000,167658.2813,145461.8906,136918.0625,143798.0938,185531.9375,187500.0000,187500.0000,31.135498,NaN,NaN,NaN
119895.8281,117002.2813,122409.7969,124103.5625,186731.5469,187500.0000,187500.0000,187500.0000,111714.5313,77757.4219,120260.0469,123125.4297,187500.0000,183385.8594,187500.0000,167597.6406,145411.4219,136879.3438,143752.6250,185171.8125,187500.0000,187500.0000,31.139496,NaN,NaN,NaN
120237.1563,119517.9453,122091.6797,125028.3672,186451.4688,187500.0000,187500.0000,187500.0000,111331.7109,77588.6016,119754.0938,123398.2109,187500.0000,183423.8438,187500.0000,167779.0000,145778.0000,137104.7969,143812.9688,187500.0000,187500.0000,187500.0000,31.143494,NaN,NaN,NaN
120444.7656,121218.8672,121861.7031,125678.6250,186248.5469,187500.0000,187500.0000,187500.0000,111060.5391,77468.7500,119394.0313,123586.3203,187500.0000,183449.5000,187500.0000,167929.2344,146016.5156,137251.4688,143874.0156,187500.0000,187500.0000,187500.0000,31.147491,NaN,NaN,NaN
120260.1797,119970.9531,122008.7109,125232.1953,186388.2344,187500.0000,187500.0000,187500.0000,111241.1875,77554.9844,119631.4688,123452.3906,187500.0000,183437.5938,187500.0000,167866.7188,145825.8594,137132.8906,143855.5469,187500.0000,187500.0000,187500.0000,31.151489,NaN,NaN,NaN
119893.6563,117295.3359,122334.6953,124222.8125,186689.6719,187500.0000,187500.0000,187500.0000,111630.4609,77715.0703,120157.2500,123147.3984,187500.0000,183396.6406,187500.0000,167655.9844,145428.5313,136880.3750,143761.9219,185540.1250,187500.0000,187500.0000,31.155487,NaN,NaN,NaN
119843.4531,116935.3594,122364.4219,124048.0859,186724.6094,187500.0000,187500.0000,187500.0000,111665.9375,77698.9297,120213.8047,123083.0703,187500.0000,183378.6250,187500.0000,167586.0469,145375.8125,136841.2344,143718.2031,185146.1094,187500.0000,187500.0000,31.159485,NaN,NaN,NaN
119843.4531,116935.3594,122364.4219,124048.0859,186724.6094,187500.0000,187500.0000,187500.0000,111665.9375,77698.9297,120213.8047,123083.0703,187500.0000,183378.6250,187500.0000,167586.0469,145375.8125,136841.2344,143718.2031,185146.1094,187500.0000,187500.0000,31.163483,NaN,NaN,NaN
120185.2813,119444.6797,122048.5859,124971.1016,186446.8438,187500.0000,187500.0000,187500.0000,111286.8281,77532.8359,119710.7500,123356.3438,187500.0000,183416.0781,187500.0000,167768.0469,145740.6094,137065.1563,143777.2813,187500.0000,187500.0000,187500.0000,31.167480,NaN,NaN,NaN
120408.3516,121178.0547,121828.8516,125641.4766,186254.5156,187500.0000,187500.0000,187500.0000,111024.6641,77435.7813,119359.8281,123559.3438,187500.0000,183451.4063,187500.0000,167932.5625,145986.5313,137217.9063,143843.0000,187500.0000,187500.0000,187500.0000,31.171478,NaN,NaN,NaN
120408.3516,121178.0547,121828.8516,125641.4766,186254.5156,187500.0000,187500.0000,187500.0000,111024.6641,77435.7813,119359.8281,123559.3438,187500.0000,183451.4063,187500.0000,167932.5625,145986.5313,137217.9063,143843.0000,187500.0000,187500.0000,187500.0000,31.175476,NaN,NaN,NaN
120215.6563,119940.8672,121962.6953,125192.5156,186381.1094,187500.0000,187500.0000,187500.0000,111191.2969,77498.9297,119581.9375,123417.6094,187500.0000,183431.2813,187500.0000,167860.5469,145797.8750,137100.2813,143824.3281,187500.0000,187500.0000,187500.0000,31.179474,NaN,NaN,NaN
119848.3984,117263.4609,122288.1094,124182.2891,186682.2344,187500.0000,187500.0000,187500.0000,111581.6016,77658.0234,120107.3594,123111.3672,187500.0000,183390.7813,187500.0000,167650.1250,145399.3281,136846.7813,143729.9219,185552.1719,187500.0000,187500.0000,31.183472,NaN,NaN,NaN
119803.3984,116882.0547,122330.6875,124005.3281,186729.8438,187500.0000,187500.0000,187500.0000,111630.4844,77665.6719,120179.6250,123051.6250,187500.0000,183380.4063,187500.0000,167587.7656,145341.4531,136804.3594,143684.7031,185124.0313,187500.0000,187500.0000,31.187469,NaN,NaN,NaN
120179.9844,119923.5859,121923.1484,125161.6094,186381.2188,187500.0000,187500.0000,187500.0000,111148.7813,77461.5781,119539.4297,123389.4453,187500.0000,183430.7969,187500.0000,167863.2656,145768.5313,137066.3281,143790.9844,187500.0000,187500.0000,187500.0000,31.191467,NaN,NaN,NaN
119799.3984,117227.9922,122237.3750,124137.3359,186670.7188,187500.0000,187500.0000,187500.0000,111526.8672,77598.3438,120053.8047,123071.7188,187500.0000,183378.7813,187500.0000,167639.7031,145366.4844,136809.7969,143694.1250,185561.8438,187500.0000,187500.0000,31.195465,NaN,NaN,NaN
120085.1875,119293.3984,121968.3047,124857.5781,186443.7813,187500.0000,187500.0000,187500.0000,111202.3594,77439.2031,119631.7422,123274.4063,187500.0000,183405.4219,187500.0000,167750.9375,145661.6406,136982.5000,143702.8438,187500.0000,187500.0000,187500.0000,31.199463,NaN,NaN,NaN
120302.8047,121060.1484,121731.3750,125532.7109,186234.7344,187500.0000,187500.0000,187500.0000,110921.7344,77315.3984,119259.8750,123470.5625,187500.0000,183433.2344,187500.0000,167905.7656,145911.4375,137136.7344,143766.8438,187500.0000,187500.0000,187500.0000,31.203461,NaN,NaN,NaN
120123.1875,119884.4453,121863.5391,125110.4844,186360.5313,187500.0000,187500.0000,187500.0000,111085.7734,77384.4375,119476.3750,123341.0781,187500.0000,183418.2813,187500.0000,167844.0469,145733.0781,137026.3438,143752.0938,187500.0000,187500.0000,187500.0000,31.207458,NaN,NaN,NaN
119759.0547,117204.6953,122194.0313,124102.8281,186666.5625,187500.0000,187500.0000,187500.0000,111480.5313,77554.6016,120007.5391,123039.5078,187500.0000,183379.2656,187500.0000,167638.4844,145333.7656,136772.3906,143658.2500,185574.3750,187500.0000,187500.0000,31.211456,NaN,NaN,NaN
120028.4844,119210.1875,121921.9219,124794.2344,186436.2500,187500.0000,187500.0000,187500.0000,111153.9453,77371.0313,119585.6094,123228.8047,187500.0000,183395.6719,187500.0000,167735.4219,145628.5781,136947.6406,143671.8438,187500.0000,187500.0000,187500.0000,31.215454,NaN,NaN,NaN
120262.4141,121013.3047,121694.8984,125490.3750,186237.5469,187500.0000,187500.0000,187500.0000,110883.4219,77273.3984,119222.3906,123439.2500,187500.0000,183433.7344,187500.0000,167905.9375,145882.4531,137104.6094,143736.9844,187500.0000,187500.0000,187500.0000,31.219452,NaN,NaN,NaN
120087.1563,119865.5391,121824.3828,125079.1484,186361.0000,187500.0000,187500.0000,187500.0000,111043.5938,77345.1484,119434.4375,123312.6719,187500.0000,183419.5000,187500.0000,167847.2188,145706.0781,136994.7500,143721.3750,187500.0000,187500.0000,187500.0000,31.223450,NaN,NaN,NaN
119707.3984,117166.2500,122140.7891,124055.1719,186652.8906,187500.0000,187500.0000,187500.0000,111424.5391,77484.8672,119951.3281,122996.6172,187500.0000,183368.3125,187500.0000,167626.0313,145303.8594,136738.4531,143625.5938,185587.9375,187500.0000,187500.0000,31.227448,NaN,NaN,NaN
119648.3438,116684.5313,122195.4609,123840.8672,186711.4063,187500.0000,187500.0000,187500.0000,111488.2422,77498.0547,120043.2344,122926.6797,187500.0000,183354.0781,187500.0000,167555.9844,145230.7031,136686.1719,143576.5625,185046.0469,187500.0000,187500.0000,31.231445,NaN,NaN,NaN
119980.3594,119140.1328,121882.5859,124740.1875,186436.0469,187500.0000,187500.0000,187500.0000,111112.1484,77327.4219,119546.8281,123190.4297,187500.0000,183387.9688,187500.0000,167728.6094,145589.4219,136906.5781,143634.2656,187500.0000,187500.0000,187500.0000,31.235443,NaN,NaN,NaN
120207.3203,120952.5703,121643.6875,125433.9141,186225.4688,187500.0000,187500.0000,187500.0000,110830.0234,77205.1563,119169.9531,123394.5469,187500.0000,183418.6094,187500.0000,167890.1563,145847.3125,137066.2188,143700.9219,187500.0000,187500.0000,187500.0000,31.239441,NaN,NaN,NaN
120041.6953,119834.5859,121776.8125,125038.1797,186352.7188,187500.0000,187500.0000,187500.0000,110992.9453,77287.7891,119383.8125,123277.0859,187500.0000,183410.4688,187500.0000,167840.0313,145676.4375,136960.5156,143688.1563,187500.0000,187500.0000,187500.0000,31.243439,NaN,NaN,NaN
119666.2969,117138.0469,122098.3203,124018.7188,186649.5469,187500.0000,187500.0000,187500.0000,111378.3359,77440.5859,119906.3125,122964.8516,187500.0000,183364.7188,187500.0000,167623.9531,145272.8750,136702.9063,143591.7344,185597.0938,187500.0000,187500.0000,31.247437,NaN,NaN,NaN
119594.5000,116618.1641,122148.0313,123784.8281,186702.6094,187500.0000,187500.0000,187500.0000,111438.2578,77435.5625,119994.9531,122882.8047,187500.0000,183345.9219,187500.0000,167542.6563,145195.9219,136648.4531,143542.5781,185023.1250,187500.0000,187500.0000,31.251434,NaN,NaN,NaN
119930.1328,119065.6563,121841.9219,124684.0625,186434.1094,187500.0000,187500.0000,187500.0000,111070.0391,77275.2344,119506.5234,123149.9063,187500.0000,183385.2813,187500.0000,167719.8906,145553.6875,136868.8438,143600.7031,187500.0000,187500.0000,187500.0000,31.255432,NaN,NaN,NaN
120163.4844,120902.3906,121603.8984,125388.6563,186224.8438,187500.0000,187500.0000,187500.0000,110786.7500,77162.3125,119129.2969,123359.5625,187500.0000,183418.2031,187500.0000,167886.2656,145812.6563,137028.6563,143665.6250,187500.0000,187500.0000,187500.0000,31.259430,NaN,NaN,NaN
119991.6484,119801.9297,121723.8828,124993.1875,186339.2500,187500.0000,187500.0000,187500.0000,110936.2891,77222.6406,119327.5078,123235.7344,187500.0000,183402.5000,187500.0000,167828.3594,145644.0938,136923.8281,143652.0625,187500.0000,187500.0000,187500.0000,31.263428,NaN,NaN,NaN
119620.1172,117107.3125,122049.5938,123977.0547,186640.3750,187500.0000,187500.0000,187500.0000,111326.9063,77382.6094,119854.4297,122926.8984,187500.0000,183360.0469,187500.0000,167616.9844,145241.3594,136667.3438,143557.1563,185610.8438,187500.0000,187500.0000,31.267426,NaN,NaN,NaN
119548.7266,116558.3281,122108.6250,123735.4297,186702.4375,187500.0000,187500.0000,187500.0000,111396.3750,77393.2031,119955.5078,122845.4297,187500.0000,183344.6094,187500.0000,167538.5000,145158.2656,136608.4688,143505.9688,184997.2031,187500.0000,187500.0000,31.271423,NaN,NaN,NaN
119872.1094,118982.6016,121793.6484,124618.9531,186424.7656,187500.0000,187500.0000,187500.0000,111019.4766,77212.3516,119458.6484,123100.3281,187500.0000,183375.5781,187500.0000,167702.9844,145512.2500,136825.5000,143561.4688,187500.0000,187500.0000,187500.0000,31.275421,NaN,NaN,NaN
120112.0313,120844.6563,121556.4453,125335.1016,186216.5938,187500.0000,187500.0000,187500.0000,110737.0000,77102.6953,119080.5938,123315.7578,187500.0000,183412.1250,187500.0000,167874.5313,145776.7500,136989.6406,143629.2031,187500.0000,187500.0000,187500.0000,31.279419,NaN,NaN,NaN
119572.7969,117076.7109,121999.7734,123935.1406,186630.0156,187500.0000,187500.0000,187500.0000,111273.6641,77322.2813,119801.5469,122889.4141,187500.0000,183351.4375,187500.0000,167608.5781,145210.5625,136632.0000,143522.9844,185624.4844,187500.0000,187500.0000,31.283417,NaN,NaN,NaN
119499.4375,116497.1328,122065.3750,123683.9063,186698.2656,187500.0000,187500.0000,187500.0000,111351.5156,77338.7969,119911.6094,122807.6563,187500.0000,183336.2656,187500.0000,167530.7188,145123.5313,136570.9688,143471.5938,184975.1875,187500.0000,187500.0000,31.287415,NaN,NaN,NaN
119827.3203,118911.0781,121759.1797,124567.6094,186429.3438,187500.0000,187500.0000,187500.0000,110982.7344,77176.7031,119425.2109,123066.7969,187500.0000,183370.8281,187500.0000,167700.3750,145474.1094,136785.4219,143525.4375,187500.0000,187500.0000,187500.0000,31.291412,NaN,NaN,NaN
120061.0313,120784.9531,121510.2031,125282.2813,186209.6563,187500.0000,187500.0000,187500.0000,110688.1563,77045.0781,119033.4297,123275.4297,187500.0000,183400.8906,187500.0000,167863.2969,145741.8594,136951.4531,143593.6563,187500.0000,187500.0000,187500.0000,31.295410,NaN,NaN,NaN
119905.1016,119748.7266,121631.3906,124916.4531,186326.0156,187500.0000,187500.0000,187500.0000,110837.8750,77119.0156,119228.9375,123166.0859,187500.0000,183392.2188,187500.0000,167818.5625,145582.1406,136852.4688,143582.8594,187500.0000,187500.0000,187500.0000,31.299408,NaN,NaN,NaN
119536.0078,117054.4922,121960.3672,123903.0469,186630.2656,187500.0000,187500.0000,187500.0000,111230.9453,77285.2188,119759.2344,122860.8750,187500.0000,183351.2188,187500.0000,167610.5625,145180.3438,136597.1563,143489.5625,185638.6094,187500.0000,187500.0000,31.303406,NaN,NaN,NaN
119448.4766,116434.0313,122020.2734,123630.5078,186692.2031,187500.0000,187500.0000,187500.0000,111302.8359,77281.5547,119865.2500,122766.2109,187500.0000,183328.3906,187500.0000,167519.5313,145089.5938,136534.3906,143438.2188,184954.9375,187500.0000,187500.0000,31.307404,NaN,NaN,NaN
119773.0469,118833.9609,121713.7188,124507.2813,186422.6094,187500.0000,187500.0000,187500.0000,110935.2578,77114.5469,119379.1875,123021.9609,187500.0000,183361.3594,187500.0000,167686.3281,145437.8281,136747.1406,143490.7969,187500.0000,187500.0000,187500.0000,31.311401,NaN,NaN,NaN
120020.6797,120738.5313,121473.3906,125240.0391,186211.7656,187500.0000,187500.0000,187500.0000,110648.0859,77008.0859,118995.2734,123242.8906,187500.0000,183400.5938,187500.0000,167862.2500,145707.3438,136913.8438,143558.2969,187500.0000,187500.0000,187500.0000,31.315399,NaN,NaN,NaN
119855.0547,119714.1484,121578.9531,124870.7656,186312.7656,187500.0000,187500.0000,187500.0000,110780.5625,77057.0078,119173.3281,123123.8438,187500.0000,183383.3125,187500.0000,167806.1250,145548.7031,136814.7031,143545.9844,187500.0000,187500.0000,187500.0000,31.319397,NaN,NaN,NaN
119483.5469,117016.2500,121906.0547,123854.8750,186615.2188,187500.0000,187500.0000,187500.0000,111173.3672,77215.2813,119701.5703,122815.9219,187500.0000,183342.3281,187500.0000,167596.3438,145147.9531,136560.4844,143454.5469,185648.9063,187500.0000,187500.0000,31.323395,NaN,NaN,NaN
119407.9531,116380.2969,121985.7578,123586.6563,186696.7813,187500.0000,187500.0000,187500.0000,111266.0156,77247.2656,119830.2891,122732.7734,187500.0000,183331.4844,187500.0000,167519.7969,145053.9688,136496.1563,143403.7969,184931.3125,187500.0000,187500.0000,31.327393,NaN,NaN,NaN
119720.0703,118757.5156,121670.0625,124447.8906,186417.9844,187500.0000,187500.0000,187500.0000,110888.6953,77062.1953,119335.7344,122977.0547,187500.0000,183354.0156,187500.0000,167673.7969,145397.3281,136704.6719,143452.3906,187500.0000,187500.0000,187500.0000,31.331390,NaN,NaN,NaN
119962.8828,120675.4531,121419.6094,125180.6484,186197.1563,187500.0000,187500.0000,187500.0000,110591.7109,76935.2188,118939.5938,123193.7109,187500.0000,183386.1719,187500.0000,167843.2500,145670.8125,136874.2813,143520.9688,187500.0000,187500.0000,187500.0000,31.335388,NaN,NaN,NaN
119819.6250,119694.9766,121540.5313,124839.8750,186314.1250,187500.0000,187500.0000,187500.0000,110739.4766,77018.2500,119131.5781,123096.0391,187500.0000,183382.6719,187500.0000,167808.8438,145520.6719,136782.2500,143514.2031,187500.0000,187500.0000,187500.0000,31.339386,NaN,NaN,NaN
119440.4766,116990.1641,121860.2969,123817.2188,186609.1875,187500.0000,187500.0000,187500.0000,111123.7969,77166.1094,119652.5469,122781.6797,187500.0000,183334.4375,187500.0000,167591.9375,145116.8125,136525.0313,143419.7656,185665.3906,187500.0000,187500.0000,31.343384,NaN,NaN,NaN
119344.0938,116305.2656,121927.8438,123520.5625,186678.0938,187500.0000,187500.0000,187500.0000,111205.6016,77168.6328,119771.2813,122679.0625,187500.0000,183311.0313,187500.0000,167496.1875,145013.7813,136453.3281,143363.7188,184906.7813,187500.0000,187500.0000,31.347382,NaN,NaN,NaN
119675.1016,118686.5078,121634.9063,124396.0391,186421.9844,187500.0000,187500.0000,187500.0000,110851.9063,77019.7266,119301.3359,122941.1406,187500.0000,183352.9375,187500.0000,167670.3750,145363.0156,136668.7031,143420.0938,187500.0000,187500.0000,187500.0000,31.351379,NaN,NaN,NaN
119921.8203,120626.3516,121382.8438,125137.4922,186199.8125,187500.0000,187500.0000,187500.0000,110551.8828,76895.8516,118902.2031,123160.8984,187500.0000,183386.2656,187500.0000,167841.9063,145638.2344,136838.7344,143487.7188,187500.0000,187500.0000,187500.0000,31.355377,NaN,NaN,NaN
119397.9219,116964.5078,121814.7656,123780.0234,186603.0000,187500.0000,187500.0000,187500.0000,111075.2500,77112.7109,119604.0469,122748.3984,187500.0000,183330.4375,187500.0000,167587.9688,145088.3594,136491.7344,143387.9531,185681.8125,187500.0000,187500.0000,31.359375,NaN,NaN,NaN
119302.2344,116252.7188,121891.2969,123476.7109,186680.6250,187500.0000,187500.0000,187500.0000,111165.9063,77128.6719,119734.3828,122647.6406,187500.0000,183309.8281,187500.0000,167495.0313,144981.3906,136417.9688,143331.7656,184887.7969,187500.0000,187500.0000,31.363373,NaN,NaN,NaN
119616.4297,118602.3984,121586.1328,124330.8125,186411.9531,187500.0000,187500.0000,187500.0000,110800.7422,76952.2734,119252.8984,122893.5781,187500.0000,183339.3438,187500.0000,167652.2656,145324.6250,136628.3906,143383.8281,187500.0000,187500.0000,187500.0000,31.367371,NaN,NaN,NaN
119872.4688,120568.4766,121337.9375,125085.8125,186194.0625,187500.0000,187500.0000,187500.0000,110504.6484,76839.3516,118856.4453,123121.1563,187500.0000,183379.2656,187500.0000,167831.9063,145604.0156,136801.4063,143453.0156,187500.0000,187500.0000,187500.0000,31.371368,NaN,NaN,NaN
119728.2578,119637.3750,121443.1719,124758.3594,186295.7656,187500.0000,187500.0000,187500.0000,110635.0547,76902.1563,119028.0391,123021.6250,187500.0000,183370.5469,187500.0000,167793.3750,145460.0938,136712.4063,143446.0469,187500.0000,187500.0000,187500.0000,31.375366,NaN,NaN,NaN
119346.2656,116929.0781,121760.5391,123733.5313,186588.3594,187500.0000,187500.0000,187500.0000,111017.4453,77045.2109,119546.3594,122705.3281,187500.0000,183319.8594,187500.0000,167574.7344,145055.2813,136454.3125,143351.6563,185694.0156,187500.0000,187500.0000,31.379364,NaN,NaN,NaN
119249.3047,116189.0547,121844.0938,123421.7031,186672.6719,187500.0000,187500.0000,187500.0000,111116.6641,77070.8047,119686.0781,122604.1875,187500.0000,183300.4531,187500.0000,167483.2031,144942.8594,136376.8438,143293.6250,184864.5469,187500.0000,187500.0000,31.383362,NaN,NaN,NaN
119568.5703,118533.8203,121546.5938,124277.5703,186411.7031,187500.0000,187500.0000,187500.0000,110758.5703,76909.0156,119213.5156,122854.8828,187500.0000,183333.8906,187500.0000,167645.7031,145285.9063,136587.4844,143346.3438,187499.5938,187500.0000,187500.0000,31.387360,NaN,NaN,NaN
119816.8828,120507.9766,121285.9219,125029.0156,186181.4688,187500.0000,187500.0000,187500.0000,110450.0938,76773.7266,118802.8906,123074.4922,187500.0000,183365.4844,187500.0000,167815.7344,145566.3125,136760.5000,143414.3594,187500.0000,187500.0000,187500.0000,31.391357,NaN,NaN,NaN
119816.8828,120507.9766,121285.9219,125029.0156,186181.4688,187500.0000,187500.0000,187500.0000,110450.0938,76773.7266,118802.8906,123074.4922,187500.0000,183365.4844,187500.0000,167815.7344,145566.3125,136760.5000,143414.3594,187500.0000,187500.0000,187500.0000,31.395355,NaN,NaN,NaN
119675.5703,119598.5000,121388.5859,124709.6094,186280.8438,187500.0000,187500.0000,187500.0000,110577.5391,76838.0078,118970.2656,122977.0391,187500.0000,183356.7344,187500.0000,167779.0000,145422.8281,136670.7656,143405.2813,187500.0000,187500.0000,187500.0000,31.399353,NaN,NaN,NaN
119675.5703,119598.5000,121388.5859,124709.6094,186280.8438,187500.0000,187500.0000,187500.0000,110577.5391,76838.0078,118970.2656,122977.0391,187500.0000,183356.7344,187500.0000,167779.0000,145422.8281,136670.7656,143405.2813,187500.0000,187500.0000,187500.0000,31.403351,NaN,NaN,NaN
119304.1719,116901.4063,121716.3984,123695.6484,186584.0000,187500.0000,187500.0000,187500.0000,110969.4297,76999.9219,119499.1016,122670.3906,187500.0000,183315.7188,187500.0000,167571.2188,145022.2656,136417.0000,143315.3281,185704.4063,187500.0000,187500.0000,31.407349,NaN,NaN,NaN
119196.2422,116125.9844,121796.3984,123366.2656,186664.2344,187500.0000,187500.0000,187500.0000,111066.0156,77009.5547,119637.2188,122559.2188,187500.0000,183291.5469,187500.0000,167470.1250,144906.7813,136338.1094,143257.8438,184844.0625,187500.0000,187500.0000,31.411346,NaN,NaN,NaN
119196.2422,116125.9844,121796.3984,123366.2656,186664.2344,187500.0000,187500.0000,187500.0000,111066.0156,77009.5547,119637.2188,122559.2188,187500.0000,183291.5469,187500.0000,167470.1250,144906.7813,136338.1094,143257.8438,184844.0625,187500.0000,187500.0000,31.415344,NaN,NaN,NaN
119514.9063,118455.9688,121502.2422,124217.3984,186406.4844,187500.0000,187500.0000,187500.0000,110712.4297,76851.2656,119169.4844,122809.7344,187500.0000,183325.8906,187500.0000,167632.8281,145247.3906,136547.1094,143309.7500,187460.6719,187500.0000,187500.0000,31.419342,NaN,NaN,NaN
119774.3672,120457.5938,121247.6797,124984.1563,186182.6250,187500.0000,187500.0000,187500.0000,110408.1797,76732.5781,118763.9531,123040.2656,187500.0000,183364.0000,187500.0000,167812.7969,145532.7188,136723.8125,143380.0938,187500.0000,187500.0000,187500.0000,31.423340,NaN,NaN,NaN
119774.3672,120457.5938,121247.6797,124984.1563,186182.6250,187500.0000,187500.0000,187500.0000,110408.1797,76732.5781,118763.9531,123040.2656,187500.0000,183364.0000,187500.0000,167812.7969,145532.7188,136723.8125,143380.0938,187500.0000,187500.0000,187500.0000,31.427338,NaN,NaN,NaN
119629.1953,119568.6406,121339.2344,124667.9219,186271.1563,187500.0000,187500.0000,187500.0000,110524.2734,76777.8594,118917.8906,122939.2578,187500.0000,183350.0781,187500.0000,167770.6875,145393.6406,136637.0156,143372.2813,187500.0000,187500.0000,187500.0000,31.431335,NaN,NaN,NaN
119258.0625,116871.5938,121667.2031,123654.6719,186574.4063,187500.0000,187500.0000,187500.0000,110917.7578,76941.3594,119447.0234,122633.2656,187500.0000,183309.6875,187500.0000,167564.0313,144991.2500,136381.3750,143280.9063,185719.1406,187500.0000,187500.0000,31.435333,NaN,NaN,NaN
119155.2031,116073.8984,121760.3672,123322.9063,186667.5313,187500.0000,187500.0000,187500.0000,111027.0078,76973.3047,119600.9609,122527.4063,187500.0000,183292.1875,187500.0000,167469.6406,144872.2031,136300.4688,143223.5781,184824.0938,187500.0000,187500.0000,31.439331,NaN,NaN,NaN
119155.2031,116073.8984,121760.3672,123322.9063,186667.5313,187500.0000,187500.0000,187500.0000,111027.0078,76973.3047,119600.9609,122527.4063,187500.0000,183292.1875,187500.0000,167469.6406,144872.2031,136300.4688,143223.5781,184824.0938,187500.0000,187500.0000,31.443329,NaN,NaN,NaN
119460.2578,118375.5469,121457.3203,124156.0938,186400.5313,187500.0000,187500.0000,187500.0000,110665.1406,76793.3906,119125.0469,122765.1875,187500.0000,183317.2969,187500.0000,167619.0625,145207.9688,136505.6563,143272.4688,187419.0625,187500.0000,187500.0000,31.447327,NaN,NaN,NaN
119722.1094,120396.0781,121200.0078,124929.4375,186174.1250,187500.0000,187500.0000,187500.0000,110359.0313,76672.4297,118715.1641,122997.4844,187500.0000,183355.1094,187500.0000,167800.2656,145495.1250,136683.2656,143342.2031,187500.0000,187500.0000,187500.0000,31.451324,NaN,NaN,NaN
119593.7188,119549.4375,121300.6094,124637.3047,186272.1406,187500.0000,187500.0000,187500.0000,110482.3438,76741.3828,118876.3594,122912.4375,187500.0000,183350.6406,187500.0000,167773.3750,145364.2500,136602.7656,143339.1563,187500.0000,187500.0000,187500.0000,31.455322,NaN,NaN,NaN
119211.8594,116844.8828,121617.5781,123614.7344,186564.2813,187500.0000,187500.0000,187500.0000,110864.1094,76882.0000,119393.9375,122597.0078,187500.0000,183300.2344,187500.0000,167555.8750,144962.1875,136347.5625,143248.0313,185738.3906,187500.0000,187500.0000,31.459320,NaN,NaN,NaN
119103.0547,116012.1406,121713.5391,123269.0625,186659.8594,187500.0000,187500.0000,187500.0000,110978.3750,76911.2734,119553.0859,122486.0547,187500.0000,183281.2344,187500.0000,167458.2344,144838.4688,136263.8906,143189.9375,184806.1406,187500.0000,187500.0000,31.463318,NaN,NaN,NaN
119420.5625,118311.2656,121427.0547,124109.9141,186409.3125,187500.0000,187500.0000,187500.0000,110632.6172,76762.2109,119095.5234,122734.8516,187500.0000,183318.1094,187500.0000,167620.9063,145174.3438,136470.2188,143240.6563,187384.9531,187500.0000,187500.0000,31.467316,NaN,NaN,NaN
119676.4844,120342.9063,121158.8594,124881.8281,186172.3438,187500.0000,187500.0000,187500.0000,110314.2578,76620.5234,118673.2266,122960.3203,187500.0000,183351.0000,187500.0000,167793.9375,145465.5469,136650.8750,143311.9531,187500.0000,187500.0000,187500.0000,31.471313,NaN,NaN,NaN
119176.5000,116825.3672,121579.3828,123583.9531,186566.1094,187500.0000,187500.0000,187500.0000,110823.0078,76846.4375,119352.9688,122567.5938,187500.0000,183302.5781,187500.0000,167559.3594,144931.0313,136312.3125,143213.8281,185752.7969,187500.0000,187500.0000,31.475311,NaN,NaN,NaN
119360.3438,118227.8906,121376.2031,124043.6875,186397.6250,187500.0000,187500.0000,187500.0000,110579.5938,76691.2500,119044.7578,122683.8281,187500.0000,183304.4844,187500.0000,167601.5313,145135.1094,136429.3281,143203.2344,187347.1250,187500.0000,187500.0000,31.479309,NaN,NaN,NaN
119503.8906,119489.4922,121206.2188,124555.9609,186257.0313,187500.0000,187500.0000,187500.0000,110381.2734,76627.7891,118776.2031,122838.3672,187500.0000,183340.9844,187500.0000,167760.2813,145305.4219,136535.3750,143273.6875,187500.0000,187500.0000,187500.0000,31.483307,NaN,NaN,NaN
119125.4297,116789.4219,121526.0938,123537.7109,186552.0938,187500.0000,187500.0000,187500.0000,110766.3203,76773.8594,119296.6016,122526.1094,187500.0000,183294.8750,187500.0000,167546.8750,144904.3125,136281.0625,143184.0469,185770.4531,187500.0000,187500.0000,31.487305,NaN,NaN,NaN
119318.2578,118162.0000,121343.1016,123995.3594,186403.3125,187500.0000,187500.0000,187500.0000,110543.7656,76654.2578,119012.1484,122651.3047,187500.0000,183306.5625,187500.0000,167600.0156,145101.0000,136392.9844,143171.1719,187312.5000,187500.0000,187500.0000,31.491302,NaN,NaN,NaN
119579.3906,120228.8203,121070.9688,124780.2891,186162.7500,187500.0000,187500.0000,187500.0000,110221.1406,76511.3594,118583.1094,122881.6797,187500.0000,183339.1875,187500.0000,167775.7188,145396.7813,136576.0625,143242.5156,187500.0000,187500.0000,187500.0000,31.495300,NaN,NaN,NaN
119087.0938,116769.8203,121484.2734,123505.2969,186549.6406,187500.0000,187500.0000,187500.0000,110720.3672,76730.5156,119251.4922,122496.6953,187500.0000,183292.7031,187500.0000,167546.6406,144875.8594,136247.8281,143151.8281,185789.3906,187500.0000,187500.0000,31.499298,NaN,NaN,NaN
118956.3828,115836.7500,121582.1094,123116.5781,186645.8281,187500.0000,187500.0000,187500.0000,110838.7422,76748.6484,119419.1563,122366.5859,187500.0000,183264.3750,187500.0000,167432.4219,144734.7813,136151.9375,143087.0781,184751.2500,187500.0000,187500.0000,31.503296,NaN,NaN,NaN
119265.6406,118083.6797,121300.4766,123935.9688,186399.6563,187500.0000,187500.0000,187500.0000,110499.1563,76598.9375,118970.0391,122608.1172,187500.0000,183298.7969,187500.0000,167588.7031,145063.2813,136353.6094,143135.5000,187272.8750,187500.0000,187500.0000,31.507294,NaN,NaN,NaN
119536.9219,120177.8594,121033.1250,124735.3828,186164.1875,187500.0000,187500.0000,187500.0000,110180.0156,76469.9844,118544.6406,122847.1953,187500.0000,183337.8594,187500.0000,167773.2656,145363.6250,136540.0469,143208.7656,187500.0000,187500.0000,187500.0000,31.511292,NaN,NaN,NaN
119411.7578,119428.2734,121109.0781,124472.9297,186238.8906,187500.0000,187500.0000,187500.0000,110277.2422,76508.9922,118672.5781,122763.2891,187500.0000,183326.9688,187500.0000,167743.7813,145245.9219,136466.9375,143206.8594,187500.0000,187500.0000,187500.0000,31.515289,NaN,NaN,NaN
119041.3203,116742.6641,121435.1484,123465.0156,186540.2344,187500.0000,187500.0000,187500.0000,110668.2188,76672.7422,119199.0547,122459.0156,187500.0000,183285.5000,187500.0000,167539.5000,144844.6250,136212.1563,143116.9219,185806.8906,187500.0000,187500.0000,31.519287,NaN,NaN,NaN
119212.7344,118005.5391,121257.5625,123876.6484,186395.8438,187500.0000,187500.0000,187500.0000,110453.9609,76540.9063,118927.6406,122565.6328,187500.0000,183290.4063,187500.0000,167577.0781,145028.3125,136316.6406,143102.5938,187236.5625,187500.0000,187500.0000,31.523285,NaN,NaN,NaN
119486.7422,120117.5781,120988.0000,124682.5156,186158.3125,187500.0000,187500.0000,187500.0000,110132.6953,76413.3672,118498.4844,122806.4219,187500.0000,183328.5313,187500.0000,167762.5156,145327.6250,136501.1875,143172.3750,187500.0000,187500.0000,187500.0000,31.527283,NaN,NaN,NaN
119369.9531,119402.0781,121064.7109,124435.7109,186233.9531,187500.0000,187500.0000,187500.0000,110228.9219,76463.3047,118625.2422,122730.0234,187500.0000,183321.7188,187500.0000,167740.0000,145212.5469,136429.1250,143169.7344,187500.0000,187500.0000,187500.0000,31.531281,NaN,NaN,NaN
118991.5859,116709.3203,121382.9297,123420.5859,186527.4531,187500.0000,187500.0000,187500.0000,110612.2734,76608.8594,119143.5547,122418.4453,187500.0000,183275.4844,187500.0000,167528.0156,144811.9375,136175.0469,143080.8594,185818.8906,187500.0000,187500.0000,31.535278,NaN,NaN,NaN
118861.5234,115724.8359,121497.1250,123018.6094,186639.2500,187500.0000,187500.0000,187500.0000,110747.9922,76648.6016,119332.3594,122290.4141,187500.0000,183253.8750,187500.0000,167418.6563,144664.7500,136076.1875,143017.2500,184715.5625,187500.0000,187500.0000,31.539276,NaN,NaN,NaN
119166.3516,117937.2109,121219.8281,123824.6172,186397.1875,187500.0000,187500.0000,187500.0000,110413.6094,76499.4453,118890.2188,122528.1484,187500.0000,183287.9688,187500.0000,167571.6094,144990.0156,136276.2188,143065.9375,187200.1250,187500.0000,187500.0000,31.543274,NaN,NaN,NaN
119436.9453,120059.7109,120942.7344,124630.5313,186152.2969,187500.0000,187500.0000,187500.0000,110084.8203,76355.4375,118452.3750,122765.3672,187500.0000,183323.4844,187500.0000,167752.3594,145294.2031,136464.6875,143138.5781,187500.0000,187500.0000,187500.0000,31.547272,NaN,NaN,NaN
119324.3125,119369.6172,121017.0313,124393.6250,186226.0625,187500.0000,187500.0000,187500.0000,110178.8750,76405.5938,118574.8359,122691.8516,187500.0000,183317.6250,187500.0000,167732.7188,145181.2188,136393.4688,143135.2500,187500.0000,187500.0000,187500.0000,31.551270,NaN,NaN,NaN
118952.9141,116687.3672,121341.1797,123386.7188,186525.5938,187500.0000,187500.0000,187500.0000,110566.7188,76568.5391,119098.8281,122386.5469,187500.0000,183275.4063,187500.0000,167527.8594,144780.0938,136138.6406,143045.6563,185833.3594,187500.0000,187500.0000,31.555267,NaN,NaN,NaN
118809.8672,115664.5938,121450.1641,122965.0547,186631.6250,187500.0000,187500.0000,187500.0000,110697.9688,76590.0391,119284.3516,122247.1406,187500.0000,183246.0469,187500.0000,167407.0313,144628.9219,136037.5000,142981.5625,184697.7344,187500.0000,187500.0000,31.559265,NaN,NaN,NaN
119109.2266,117856.0469,121171.8906,123761.0000,186388.3906,187500.0000,187500.0000,187500.0000,110363.9219,76438.0234,118842.5703,122479.9531,187500.0000,183275.8281,187500.0000,167555.4375,144948.3125,136232.5625,143026.0313,187159.0156,187500.0000,187500.0000,31.563263,NaN,NaN,NaN
119392.7109,120007.0469,120902.9922,124583.9453,186152.0938,187500.0000,187500.0000,187500.0000,110041.8359,76315.9844,118411.9609,122729.7109,187500.0000,183318.2500,187500.0000,167748.1563,145256.5156,136423.8750,143100.2500,187500.0000,187500.0000,187500.0000,31.567261,NaN,NaN,NaN
119274.7344,119334.5703,120965.4219,124348.4297,186214.0469,187500.0000,187500.0000,187500.0000,110122.9922,76343.6797,118519.9844,122651.6875,187500.0000,183304.6094,187500.0000,167721.0000,145149.0469,136356.7656,143099.4688,187500.0000,187500.0000,187500.0000,31.571259,NaN,NaN,NaN
118903.4297,116656.2969,121288.6719,123343.3125,186512.5313,187500.0000,187500.0000,187500.0000,110511.7813,76502.7344,119042.6797,122347.0078,187500.0000,183262.3906,187500.0000,167517.0000,144749.0625,136102.9844,143010.8594,185849.5625,187500.0000,187500.0000,31.575256,NaN,NaN,NaN
118770.4375,115617.2344,121415.7422,122924.7578,186636.5000,187500.0000,187500.0000,187500.0000,110661.0938,76556.0859,119249.1250,122217.8359,187500.0000,183244.7500,187500.0000,167408.7656,144595.7969,136001.3750,142948.4375,184681.9531,187500.0000,187500.0000,31.579254,NaN,NaN,NaN
119057.9453,117778.0234,121131.3828,123704.2500,186390.7188,187500.0000,187500.0000,187500.0000,110321.7500,76386.2109,118803.3828,122440.3047,187500.0000,183269.4531,187500.0000,167547.5156,144915.0938,136197.1250,142995.5938,187119.8281,187500.0000,187500.0000,31.583252,NaN,NaN,NaN
119340.9688,119944.3984,120858.1563,124538.4844,186181.3281,187500.0000,187500.0000,187500.0000,110004.8672,76259.7031,118372.1328,122695.2891,187500.0000,183317.8906,187500.0000,167754.4844,145244.7188,136404.9531,143091.1875,187500.0000,187500.0000,187500.0000,31.587250,NaN,NaN,NaN
119242.4609,119318.8594,120932.0078,124333.7188,186271.1094,187500.0000,187500.0000,187500.0000,110100.8906,76321.0156,118492.7422,122638.1406,187500.0000,183320.9375,187500.0000,167753.8125,145151.2344,136348.1563,143101.7031,187500.0000,187500.0000,187500.0000,31.591248,NaN,NaN,NaN
118862.3047,116634.0781,121246.1172,123320.6719,186561.5781,187500.0000,187500.0000,187500.0000,110478.9922,76463.0547,119005.9609,122325.5313,187500.0000,183271.5313,187500.0000,167540.7344,144750.6250,136093.5938,143012.5313,185871.4219,187500.0000,187500.0000,31.595245,NaN,NaN,NaN
118713.9766,115552.3906,121366.1484,122879.3125,186678.7031,187500.0000,187500.0000,187500.0000,110623.0938,76495.7344,119207.3672,122182.5859,187500.0000,183244.1250,187500.0000,167419.2500,144590.0469,135986.5156,142946.4688,184665.6094,187500.0000,187500.0000,31.599243,NaN,NaN,NaN
119016.6406,117712.1953,121101.3203,123667.9063,186449.0313,187500.0000,187500.0000,187500.0000,110302.8828,76360.2188,118782.1484,122418.2891,187500.0000,183281.5469,187500.0000,167572.3594,144907.6250,136182.0625,142993.3281,187085.9531,187500.0000,187500.0000,31.603241,NaN,NaN,NaN
119297.2031,119890.4609,120819.9844,124495.4766,186200.9531,187500.0000,187500.0000,187500.0000,109967.5391,76217.9063,118336.1875,122663.3516,187500.0000,183319.6875,187500.0000,167758.3125,145220.2656,136375.8281,143067.2969,187500.0000,187500.0000,187500.0000,31.607239,NaN,NaN,NaN
119190.0703,119280.7031,120877.6250,124285.3984,186259.3125,187500.0000,187500.0000,187500.0000,110042.9531,76246.9609,118435.3828,122594.4375,187500.0000,183311.0938,187500.0000,167739.2813,145122.5156,136314.9844,143069.4688,187500.0000,187500.0000,187500.0000,31.611237,NaN,NaN,NaN
118825.1328,116615.5938,121205.4844,123289.1563,186563.1719,187500.0000,187500.0000,187500.0000,110435.4531,76418.0625,118962.3750,122296.1328,187500.0000,183274.0000,187500.0000,167542.5625,144724.7031,136063.1250,142982.8906,185893.3281,187500.0000,187500.0000,31.615234,NaN,NaN,NaN
118673.8359,115504.6250,121330.4922,122837.9375,186684.5156,187500.0000,187500.0000,187500.0000,110584.2422,76457.5625,119170.8438,122150.5391,187500.0000,183246.5469,187500.0000,167419.3906,144558.1875,135951.8906,142914.5938,184651.6250,187500.0000,187500.0000,31.619232,NaN,NaN,NaN
118956.9844,117629.5156,121051.0547,123602.6172,186439.6719,187500.0000,187500.0000,187500.0000,110250.2188,76289.9219,118731.8125,122367.8594,187500.0000,183269.7969,187500.0000,167553.2031,144869.1875,136141.6719,142956.7656,187048.1094,187500.0000,187500.0000,31.623230,NaN,NaN,NaN
119247.4219,119831.8984,120775.0078,124443.4688,186197.2031,187500.0000,187500.0000,187500.0000,109920.1563,76162.7422,118290.3203,122621.7578,187500.0000,183313.7500,187500.0000,167748.2500,145184.3906,136337.0938,143031.0469,187500.0000,187500.0000,187500.0000,31.627228,NaN,NaN,NaN
119149.4766,119252.4063,120835.6016,124248.3828,186258.7813,187500.0000,187500.0000,187500.0000,109997.0625,76202.5000,118390.6172,122561.2969,187500.0000,183309.9375,187500.0000,167737.0469,145091.7188,136280.1719,143035.5313,187500.0000,187500.0000,187500.0000,31.631226,NaN,NaN,NaN
118772.3594,116579.6563,121150.0078,123241.5000,186549.0781,187500.0000,187500.0000,187500.0000,110376.4219,76346.8047,118903.1875,122251.5000,187500.0000,183262.0781,187500.0000,167527.4531,144692.5313,136026.6250,142947.2500,185907.6250,187500.0000,187500.0000,31.635223,NaN,NaN,NaN
118623.8984,115448.3906,121284.6719,122786.7813,186679.7813,187500.0000,187500.0000,187500.0000,110535.7656,76400.3125,119123.6406,122109.5234,187500.0000,183238.8750,187500.0000,167409.3594,144523.3594,135914.0469,142879.4375,184637.1406,187500.0000,187500.0000,31.639221,NaN,NaN,NaN
118910.6719,117560.0703,121013.5703,123550.0234,186443.1094,187500.0000,187500.0000,187500.0000,110210.2578,76248.0313,118694.8203,122330.9844,187500.0000,183265.6563,187500.0000,167548.0000,144831.5469,136102.0313,142920.7813,187011.7344,187500.0000,187500.0000,31.643219,NaN,NaN,NaN
119191.6328,119765.8281,120724.3594,124384.7969,186187.2969,187500.0000,187500.0000,187500.0000,109866.6406,76096.9141,118238.6250,122575.8906,187500.0000,183299.8750,187500.0000,167731.9063,145146.8750,136296.4844,142993.0625,187500.0000,187500.0000,187500.0000,31.647217,NaN,NaN,NaN
119098.9844,119216.4688,120782.7891,124202.1797,186247.0000,187500.0000,187500.0000,187500.0000,109941.1641,76140.7422,118334.8438,122519.9844,187500.0000,183297.5313,187500.0000,167724.8906,145055.9063,136239.6719,142996.0781,187500.0000,187500.0000,187500.0000,31.651215,NaN,NaN,NaN
118728.2813,116553.1875,121103.0625,123203.1719,186543.1406,187500.0000,187500.0000,187500.0000,110325.3438,76298.7266,118853.1875,122216.4531,187500.0000,183255.5938,187500.0000,167522.2656,144658.0938,135987.4688,142909.3438,185919.2969,187500.0000,187500.0000,31.655212,NaN,NaN,NaN
118568.9141,115386.0234,121234.6484,122730.9844,186670.2344,187500.0000,187500.0000,187500.0000,110482.7891,76336.3203,119072.1641,122064.4141,187500.0000,183228.1875,187500.0000,167394.8438,144486.1406,135873.8281,142842.2188,184617.5781,187500.0000,187500.0000,31.659210,NaN,NaN,NaN
118855.2422,117479.1563,120968.2656,123488.3984,186438.0625,187500.0000,187500.0000,187500.0000,110162.5781,76190.1172,118649.6719,122285.0938,187500.0000,183256.4688,187500.0000,167533.7344,144790.9375,136059.4375,142882.3125,186968.7656,187500.0000,187500.0000,31.663208,NaN,NaN,NaN
119146.6875,119710.0625,120684.9063,124337.2734,186188.5469,187500.0000,187500.0000,187500.0000,109823.7969,76054.2656,118198.2813,122539.4766,187500.0000,183296.6563,187500.0000,167726.9688,145110.3750,136257.3281,142956.6719,187500.0000,187500.0000,187500.0000,31.667206,NaN,NaN,NaN
119053.0313,119185.4844,120734.5313,124160.6484,186239.8438,187500.0000,187500.0000,187500.0000,109889.1484,76080.7109,118283.1953,122482.5000,187500.0000,183290.0625,187500.0000,167716.8438,145027.0781,136206.4531,142963.6719,187500.0000,187500.0000,187500.0000,31.671204,NaN,NaN,NaN
118685.2969,116530.9531,121055.9922,123166.4453,186537.3281,187500.0000,187500.0000,187500.0000,110275.1641,76241.8203,118802.2891,122182.0938,187500.0000,183248.7813,187500.0000,167517.5625,144631.1563,135955.8906,142878.2031,185943.5000,187500.0000,187500.0000,31.675201,NaN,NaN,NaN
118525.1016,115335.1797,121195.2031,122686.0391,186671.6563,187500.0000,187500.0000,187500.0000,110439.9453,76294.6797,119031.5938,122029.7031,187500.0000,183222.5625,187500.0000,167391.5781,144451.6719,135836.4844,142807.5313,184603.5156,187500.0000,187500.0000,31.679199,NaN,NaN,NaN
118800.8594,117399.4453,120923.7344,123427.3984,186434.1875,187500.0000,187500.0000,187500.0000,110115.5547,76132.0313,118605.3281,122240.1016,187500.0000,183245.0469,187500.0000,167520.1250,144753.0156,136019.9531,142846.5469,186930.4063,187500.0000,187500.0000,31.683197,NaN,NaN,NaN
119094.2891,119647.4063,120637.4766,124281.8203,186181.9531,187500.0000,187500.0000,187500.0000,109774.3750,75995.1875,118149.8438,122495.2188,187500.0000,183285.7031,187500.0000,167713.9219,145072.3906,136216.5781,142918.2500,187500.0000,187500.0000,187500.0000,31.687195,NaN,NaN,NaN
119011.8594,119157.7266,120691.3438,124123.2344,186237.7969,187500.0000,187500.0000,187500.0000,109842.2344,76038.7109,118237.5078,122448.6641,187500.0000,183286.4688,187500.0000,167714.0469,144992.7188,136167.8125,142925.8594,187500.0000,187500.0000,187500.0000,31.691193,NaN,NaN,NaN
118637.3594,116502.2734,121004.7188,123124.4922,186527.0625,187500.0000,187500.0000,187500.0000,110219.9609,76180.8906,118747.7266,122142.4219,187500.0000,183240.5938,187500.0000,167507.7656,144599.4375,135919.5000,142842.7500,185960.7188,187500.0000,187500.0000,31.695190,NaN,NaN,NaN
118474.6563,115279.0547,121148.7500,122634.8750,186665.9219,187500.0000,187500.0000,187500.0000,110391.5313,76236.2734,118984.0547,121988.5938,187500.0000,183215.0469,187500.0000,167381.5469,144416.5000,135798.1250,142771.8906,184588.6563,187500.0000,187500.0000,31.699188,NaN,NaN,NaN
118474.6563,115279.0547,121148.7500,122634.8750,186665.9219,187500.0000,187500.0000,187500.0000,110391.5313,76236.2734,118984.0547,121988.5938,187500.0000,183215.0469,187500.0000,167381.5469,144416.5000,135798.1250,142771.8906,184588.6563,187500.0000,187500.0000,31.703186,NaN,NaN,NaN
118757.1172,117331.8594,120889.3594,123377.6719,186440.0781,187500.0000,187500.0000,187500.0000,110078.6719,76096.8047,118571.8438,122205.8750,187500.0000,183244.1719,187500.0000,167518.1406,144715.4063,135980.1563,142810.5625,186892.7813,187500.0000,187500.0000,31.707184,NaN,NaN,NaN
119043.3984,119584.8672,120592.4375,124228.1563,186177.1094,187500.0000,187500.0000,187500.0000,109726.1875,75937.6328,118104.2031,122453.9375,187500.0000,183278.3594,187500.0000,167702.7344,145038.1875,136179.5156,142883.9063,187500.0000,187500.0000,187500.0000,31.711182,NaN,NaN,NaN
118962.9531,119121.7422,120640.6563,124078.2188,186227.5938,187500.0000,187500.0000,187500.0000,109789.1016,75973.7578,118183.6563,122408.0703,187500.0000,183278.7344,187500.0000,167703.1406,144961.7344,136132.4844,142891.4844,187500.0000,187500.0000,187500.0000,31.715179,NaN,NaN,NaN
118962.9531,119121.7422,120640.6563,124078.2188,186227.5938,187500.0000,187500.0000,187500.0000,109789.1016,75973.7578,118183.6563,122408.0703,187500.0000,183278.7344,187500.0000,167703.1406,144961.7344,136132.4844,142891.4844,187500.0000,187500.0000,187500.0000,31.719177,NaN,NaN,NaN
118600.2031,116480.7500,120964.7109,123092.0781,186527.6875,187500.0000,187500.0000,187500.0000,110176.5469,76142.3516,118704.7031,122112.4453,187500.0000,183242.2500,187500.0000,167509.1250,144568.0313,135883.7188,142808.0156,185973.6875,187500.0000,187500.0000,31.723175,NaN,NaN,NaN
118425.1953,115223.1016,121103.5156,122584.3594,186660.9375,187500.0000,187500.0000,187500.0000,110342.6484,76180.2891,118937.6484,121948.1406,187500.0000,183210.1094,187500.0000,167371.8438,144382.4531,135761.1563,142737.8594,184573.9219,187500.0000,187500.0000,31.727173,NaN,NaN,NaN
118700.8125,117254.1172,120841.5703,123315.7969,186432.5000,187500.0000,187500.0000,187500.0000,110029.0078,76031.2031,118523.8281,122159.1875,187500.0000,183234.2500,187500.0000,167502.4219,144677.7813,135940.5625,142774.5313,186857.9219,187500.0000,187500.0000,31.731171,NaN,NaN,NaN
119003.7891,119535.9219,120557.1953,124185.7734,186182.4688,187500.0000,187500.0000,187500.0000,109688.4766,75903.0781,118068.4141,122422.7578,187500.0000,183278.7813,187500.0000,167703.3438,145003.2031,136141.5938,142848.4688,187500.0000,187500.0000,187500.0000,31.735168,NaN,NaN,NaN
118918.8984,119090.3359,120594.9922,124037.8906,186222.6563,187500.0000,187500.0000,187500.0000,109739.0391,75922.0781,118135.2891,122372.9141,187500.0000,183272.8281,187500.0000,167697.3594,144930.7813,136097.1094,142857.1719,187500.0000,187500.0000,187500.0000,31.739166,NaN,NaN,NaN
118547.5703,116447.4219,120908.7188,123045.4766,186512.4688,187500.0000,187500.0000,187500.0000,110117.2969,76069.5313,118645.1563,122069.3125,187500.0000,183229.1094,187500.0000,167494.7969,144537.5313,135848.4375,142773.5469,185992.0156,187500.0000,187500.0000,31.743164,NaN,NaN,NaN
118383.1953,115175.1563,121065.3828,122541.3984,186663.2344,187500.0000,187500.0000,187500.0000,110302.3047,76140.3438,118898.6016,121914.8828,187500.0000,183208.2188,187500.0000,167370.7344,144348.0000,135723.5469,142702.9844,184560.1094,187500.0000,187500.0000,31.747162,NaN,NaN,NaN
118653.5156,117181.4297,120804.1094,123261.8203,186435.1719,187500.0000,187500.0000,187500.0000,109988.5469,75986.6719,118486.8828,122120.7188,187500.0000,183230.6250,187500.0000,167496.0313,144641.6875,135902.5625,142740.5000,186820.0938,187500.0000,187500.0000,31.751160,NaN,NaN,NaN
118946.3203,119467.5859,120505.3359,124125.4219,186170.8750,187500.0000,187500.0000,187500.0000,109633.5781,75829.7656,118015.3750,122374.4766,187500.0000,183265.4063,187500.0000,167684.7500,144968.8281,136104.4688,142813.6250,187500.0000,187500.0000,187500.0000,31.755157,NaN,NaN,NaN
118878.0391,119063.8047,120551.5625,124001.0156,186220.1563,187500.0000,187500.0000,187500.0000,109692.7266,75874.2031,118089.3594,122340.0781,187500.0000,183269.7500,187500.0000,167695.0000,144900.7656,136062.8438,142823.4219,187500.0000,187500.0000,187500.0000,31.759155,NaN,NaN,NaN
118509.5469,116430.0781,120866.4766,123013.7344,186511.2188,187500.0000,187500.0000,187500.0000,110071.1172,76026.9063,118599.8281,122039.2031,187500.0000,183227.8125,187500.0000,167495.3594,144508.5313,135814.6406,142740.5000,186013.8906,187500.0000,187500.0000,31.763153,NaN,NaN,NaN
118326.3281,115113.1797,121012.5000,122483.9766,186650.8906,187500.0000,187500.0000,187500.0000,110246.5781,76068.9766,118844.2422,121867.5625,187500.0000,183195.5469,187500.0000,167353.9375,144312.5781,135685.0938,142667.2500,184546.3438,187500.0000,187500.0000,31.767151,NaN,NaN,NaN
118326.3281,115113.1797,121012.5000,122483.9766,186650.8906,187500.0000,187500.0000,187500.0000,110246.5781,76068.9766,118844.2422,121867.5625,187500.0000,183195.5469,187500.0000,167353.9375,144312.5781,135685.0938,142667.2500,184546.3438,187500.0000,187500.0000,31.771149,NaN,NaN,NaN
118601.3906,117103.0859,120761.7578,123202.6563,186433.2344,187500.0000,187500.0000,187500.0000,109944.4922,75933.4141,118445.4219,122078.1641,187500.0000,183224.1094,187500.0000,167485.7031,144602.8594,135862.0313,142703.9219,186779.6875,187500.0000,187500.0000,31.775146,NaN,NaN,NaN
118901.8438,119410.5469,120466.3281,124077.3203,186172.5000,187500.0000,187500.0000,187500.0000,109591.5156,75786.7813,117976.3047,122338.8516,187500.0000,183263.3594,187500.0000,167680.7031,144933.7188,136066.7031,142778.5625,187500.0000,187500.0000,187500.0000,31.779144,NaN,NaN,NaN
118826.2734,119026.4531,120497.4219,123953.2266,186206.7031,187500.0000,187500.0000,187500.0000,109634.8125,75803.8828,118032.0938,122297.3672,187500.0000,183257.8594,187500.0000,167680.8594,144869.5625,136027.1250,142788.4844,187500.0000,187500.0000,187500.0000,31.783142,NaN,NaN,NaN
118463.3438,116403.5859,120816.4688,122973.3672,186501.8750,187500.0000,187500.0000,187500.0000,110017.6094,75967.3828,118546.3203,122002.8125,187500.0000,183217.7344,187500.0000,167487.2500,144477.4219,135778.7969,142705.2656,186031.3438,187500.0000,187500.0000,31.787140,NaN,NaN,NaN
118282.9453,115064.6094,120972.9766,122440.1953,186651.6094,187500.0000,187500.0000,187500.0000,110203.4141,76026.3516,118803.6328,121835.4219,187500.0000,183189.0625,187500.0000,167350.8281,144278.1406,135647.6094,142632.1250,184531.7031,187500.0000,187500.0000,31.791138,NaN,NaN,NaN
118547.9688,117026.5547,120717.6094,123143.8672,186428.9844,187500.0000,187500.0000,187500.0000,109897.7344,75873.1953,118401.3672,122036.3594,187500.0000,183212.9531,187500.0000,167472.8906,144567.3438,135824.4531,142670.0000,186743.7031,187500.0000,187500.0000,31.795135,NaN,NaN,NaN
118854.4609,119351.4453,120424.4922,124027.1016,186170.7969,187500.0000,187500.0000,187500.0000,109547.4141,75733.8984,117933.6328,122301.2109,187500.0000,183257.5000,187500.0000,167672.7188,144900.4531,136030.3438,142745.2813,187500.0000,187500.0000,187500.0000,31.799133,NaN,NaN,NaN
118789.0781,119001.6250,120458.8203,123919.9453,186208.8281,187500.0000,187500.0000,187500.0000,109592.3438,75763.2656,117990.5625,122268.0859,187500.0000,183259.4219,187500.0000,167681.6875,144841.7344,135994.7188,142757.5938,187500.0000,187500.0000,187500.0000,31.803131,NaN,NaN,NaN
118419.0703,116377.7500,120769.0625,122934.7891,186495.2656,187500.0000,187500.0000,187500.0000,109966.3516,75907.6406,118494.9531,121965.8438,187500.0000,183214.9219,187500.0000,167480.4531,144451.4531,135748.1563,142675.7656,186053.5156,187500.0000,187500.0000,31.807129,NaN,NaN,NaN
118238.0859,115014.1172,120931.9375,122394.1250,186651.2344,187500.0000,187500.0000,187500.0000,110159.8750,75974.2891,118760.8281,121797.4219,187500.0000,183188.7188,187500.0000,167345.4688,144248.4531,135614.8281,142602.2969,184523.8750,187500.0000,187500.0000,31.811127,NaN,NaN,NaN
118504.7422,116961.1094,120683.1406,123094.3594,186434.8438,187500.0000,187500.0000,187500.0000,109860.1406,75834.6406,118366.8516,121999.9531,187500.0000,183213.7344,187500.0000,167470.1563,144532.9688,135788.1875,142637.4219,186712.8281,187500.0000,187500.0000,31.815125,NaN,NaN,NaN
118802.8047,119291.0313,120377.6172,123972.5391,186164.2500,187500.0000,187500.0000,187500.0000,109496.8984,75673.2344,117885.3125,122256.6641,187500.0000,183248.7344,187500.0000,167659.9844,144865.8281,135993.1719,142710.2344,187500.0000,187500.0000,187500.0000,31.819122,NaN,NaN,NaN
118739.2578,118963.7813,120407.2813,123872.8281,186197.8750,187500.0000,187500.0000,187500.0000,109537.6719,75700.8203,117936.1328,122224.7188,187500.0000,183249.3906,187500.0000,167669.9063,144806.9844,135956.1094,142719.5938,187500.0000,187500.0000,187500.0000,31.823120,NaN,NaN,NaN
118376.1719,116354.1016,120722.3516,122896.9688,186489.3438,187500.0000,187500.0000,187500.0000,109915.7266,75860.0938,118445.2656,121929.2344,187500.0000,183210.0625,187500.0000,167476.1563,144416.9844,135709.3438,142637.5000,186068.8281,187500.0000,187500.0000,31.827118,NaN,NaN,NaN
118183.9297,114956.7813,120881.0000,122339.5391,186640.5938,187500.0000,187500.0000,187500.0000,110106.0547,75911.2344,118708.6094,121751.5313,187500.0000,183178.0313,187500.0000,167331.5000,144210.4531,135573.8750,142563.7813,184509.8438,187500.0000,187500.0000,31.831116,NaN,NaN,NaN
118451.3906,116883.6797,120639.0234,123034.7891,186430.9063,187500.0000,187500.0000,187500.0000,109814.6719,75778.2031,118323.4063,121956.0078,187500.0000,183206.1094,187500.0000,167458.3438,144493.7031,135747.0156,142600.0625,186673.4219,187500.0000,187500.0000,31.835114,NaN,NaN,NaN
118759.8672,119234.7266,120340.4453,123926.1797,186167.5313,187500.0000,187500.0000,187500.0000,109457.3359,75635.5703,117848.2734,122222.9766,187500.0000,183247.0781,187500.0000,167657.6094,144828.9688,135953.5000,142673.4219,187500.0000,187500.0000,187500.0000,31.839111,NaN,NaN,NaN
118334.5156,116332.1719,120676.9063,122862.0156,186484.3594,187500.0000,187500.0000,187500.0000,109867.5781,75804.3984,118395.9375,121897.6719,187500.0000,183205.4688,187500.0000,167472.4531,144390.3906,135677.8281,142606.8281,186090.3281,187500.0000,187500.0000,31.843109,NaN,NaN,NaN
118146.4219,114915.5469,120846.9375,122302.4609,186646.6406,187500.0000,187500.0000,187500.0000,110068.7891,75877.7109,118673.3672,121724.4453,187500.0000,183179.6406,187500.0000,167334.3906,144179.0469,135538.9688,142531.5313,184500.1406,187500.0000,187500.0000,31.847107,NaN,NaN,NaN
118399.1719,116806.9688,120596.5781,122976.6328,186428.2500,187500.0000,187500.0000,187500.0000,109769.3672,75722.1641,118281.0469,121914.2344,187500.0000,183199.5469,187500.0000,167446.8750,144457.5156,135708.9219,142565.8750,186636.0156,187500.0000,187500.0000,31.851105,NaN,NaN,NaN
118710.8047,119173.0859,120297.2188,123873.6797,186164.2500,187500.0000,187500.0000,187500.0000,109412.4766,75575.9141,117804.1250,122183.2109,187500.0000,183243.3125,187500.0000,167648.4688,144797.1719,135919.0313,142641.8125,187500.0000,187500.0000,187500.0000,31.855103,NaN,NaN,NaN
118659.5078,118910.4063,120323.4141,123800.9688,186195.0781,187500.0000,187500.0000,187500.0000,109447.2813,75608.1484,117847.2422,122162.7422,187500.0000,183247.1563,187500.0000,167667.2031,144748.9688,135889.3750,142654.7969,187500.0000,187500.0000,187500.0000,31.859100,NaN,NaN,NaN
118092.4844,114856.8750,120796.4922,122247.6094,186636.4844,187500.0000,187500.0000,187500.0000,110016.2891,75810.9688,118621.8906,121679.7656,187500.0000,183169.0938,187500.0000,167320.8594,144143.9844,135500.8281,142496.0938,184487.0156,187500.0000,187500.0000,31.863098,NaN,NaN,NaN
118355.1016,116740.1875,120561.0781,122926.4531,186432.9375,187500.0000,187500.0000,187500.0000,109732.0000,75686.6484,118246.4922,121878.8281,187500.0000,183196.7188,187500.0000,167444.4219,144418.0313,135667.2344,142527.9688,186598.5313,187500.0000,187500.0000,31.867096,NaN,NaN,NaN
118661.0234,119113.2031,120252.7188,123821.1953,186159.8750,187500.0000,187500.0000,187500.0000,109364.0156,75523.6172,117758.8438,122141.8438,187500.0000,183234.0000,187500.0000,167637.9844,144760.4219,135879.3594,142604.7500,187500.0000,187500.0000,187500.0000,31.871094,NaN,NaN,NaN
118604.8125,118866.8828,120267.8281,123749.5156,186179.7656,187500.0000,187500.0000,187500.0000,109388.0469,75534.5000,117788.3906,122116.0469,187500.0000,183232.7969,187500.0000,167650.0156,144716.0469,135852.2031,142618.9375,187500.0000,187500.0000,187500.0000,31.875092,NaN,NaN,NaN
118248.4766,116284.8594,120583.6094,122787.4922,186472.3125,187500.0000,187500.0000,187500.0000,109766.8203,75702.0000,118296.3594,121827.2422,187500.0000,183195.9844,187500.0000,167463.2031,144328.3594,135606.6406,142537.3594,186126.9531,187500.0000,187500.0000,31.879089,NaN,NaN,NaN
118045.0313,114805.9297,120752.6094,122200.2266,186632.8750,187500.0000,187500.0000,187500.0000,109968.7031,75761.8828,118576.2422,121640.6016,187500.0000,183162.3906,187500.0000,167312.9219,144108.2344,135461.9844,142459.8281,184474.9063,187500.0000,187500.0000,31.883087,NaN,NaN,NaN
118616.7031,119055.7813,120214.2969,123773.4063,186161.7344,187500.0000,187500.0000,187500.0000,109323.4766,75478.8672,117719.9531,122106.1875,187500.0000,183231.6875,187500.0000,167633.8906,144726.7656,135842.9531,142571.2031,187500.0000,187500.0000,187500.0000,31.887085,NaN,NaN,NaN
118569.1641,118843.9531,120230.2109,123717.5703,186182.8125,187500.0000,187500.0000,187500.0000,109346.8516,75496.1016,117748.2266,122088.5313,187500.0000,183234.1406,187500.0000,167652.8125,144689.1250,135820.8438,142588.4531,187500.0000,187500.0000,187500.0000,31.891083,NaN,NaN,NaN
118199.6641,116255.9375,120531.2422,122744.7813,186460.4531,187500.0000,187500.0000,187500.0000,109710.7188,75633.0469,118240.1875,121787.7422,187500.0000,183185.8125,187500.0000,167452.2188,144301.2031,135574.7031,142506.0469,186149.2969,187500.0000,187500.0000,31.895081,NaN,NaN,NaN
118000.5078,114757.7656,120711.4375,122155.3828,186631.8281,187500.0000,187500.0000,187500.0000,109924.7344,75711.3047,118533.6016,121605.7578,187500.0000,183158.0313,187500.0000,167308.7031,144077.2188,135427.7188,142427.9531,184466.5781,187500.0000,187500.0000,31.899078,NaN,NaN,NaN
118248.9531,116586.6953,120473.6875,122808.3906,186425.4375,187500.0000,187500.0000,187500.0000,109639.1250,75572.6953,118159.4531,121792.4609,187500.0000,183178.5781,187500.0000,167419.7969,144344.3438,135589.5625,142457.7813,186525.0313,187500.0000,187500.0000,31.903076,NaN,NaN,NaN
118558.0703,118983.7891,120161.5000,123711.2266,186148.9688,187500.0000,187500.0000,187500.0000,109267.7500,75408.0313,117666.6641,122058.1094,187492.1094,183215.6406,187500.0000,167614.5156,144688.1719,135801.5781,142532.4219,187500.0000,187500.0000,187500.0000,31.907074,NaN,NaN,NaN
118518.5547,118804.7891,120177.9688,123670.4297,186170.8750,187500.0000,187500.0000,187500.0000,109291.4453,75433.4688,117693.5781,122047.5625,187500.0000,183222.7813,187500.0000,167640.4219,144653.4219,135780.7656,142549.4375,187500.0000,187500.0000,187500.0000,31.911072,NaN,NaN,NaN
118156.3672,116233.6719,120483.3203,122708.0078,186453.1875,187500.0000,187500.0000,187500.0000,109659.0625,75583.8750,118189.3828,121752.9453,187500.0000,183180.8281,187500.0000,167447.2188,144267.3906,135535.9219,142468.1094,186165.8594,187500.0000,187500.0000,31.915070,NaN,NaN,NaN
117945.2578,114699.8281,120658.8047,122100.2031,186619.7656,187500.0000,187500.0000,187500.0000,109869.4609,75644.1094,118479.5781,121559.2656,187500.0000,183147.7500,187500.0000,167292.8125,144039.8438,135387.0625,142390.0625,184453.0469,187500.0000,187500.0000,31.919067,NaN,NaN,NaN
117945.2578,114699.8281,120658.8047,122100.2031,186619.7656,187500.0000,187500.0000,187500.0000,109869.4609,75644.1094,118479.5781,121559.2656,187500.0000,183147.7500,187500.0000,167292.8125,144039.8438,135387.0625,142390.0625,184453.0469,187500.0000,187500.0000,31.923065,NaN,NaN,NaN
118195.6641,116508.5078,120429.8125,122748.4688,186421.8281,187500.0000,187500.0000,187500.0000,109593.3672,75516.5703,118115.8203,121747.1797,187500.0000,183173.0156,187500.0000,167407.2031,144304.4063,135547.9219,142420.0625,186484.5781,187500.0000,187500.0000,31.927063,NaN,NaN,NaN
118514.1953,118928.2422,120122.9453,123663.8359,186150.8594,187500.0000,187500.0000,187500.0000,109226.0234,75365.6953,117627.4609,122020.6953,187489.5938,183216.2656,187500.0000,167610.2031,144652.7969,135763.7813,142497.1875,187500.0000,187500.0000,187500.0000,31.931061,NaN,NaN,NaN
118467.1484,118766.4609,120124.4844,123622.1953,186158.1563,187500.0000,187500.0000,187500.0000,109234.2422,75367.0391,117636.9844,122002.5234,187495.7031,183213.1719,187500.0000,167626.3906,144619.8125,135743.1719,142512.5313,187500.0000,187500.0000,187500.0000,31.935059,NaN,NaN,NaN
118112.2266,116210.4688,120434.7969,122669.3672,186445.5938,187500.0000,187500.0000,187500.0000,109607.2266,75526.1172,118137.2109,121715.8828,187500.0000,183174.6406,187500.0000,167441.1094,144238.3438,135502.4375,142434.8281,186189.5313,187500.0000,187500.0000,31.939056,NaN,NaN,NaN
117907.4844,114660.0625,120623.8203,122062.2031,186625.1719,187500.0000,187500.0000,187500.0000,109830.9688,75606.8750,118443.4297,121530.2109,187500.0000,183147.9063,187500.0000,167295.6250,144011.2500,135355.3906,142360.2500,184450.9063,187500.0000,187500.0000,31.943054,NaN,NaN,NaN
118148.8125,116439.6875,120391.7656,122695.9375,186423.6719,187500.0000,187500.0000,187500.0000,109552.6016,75464.1328,118078.1172,121710.5859,187500.0000,183167.8438,187500.0000,167401.5469,144274.7813,135516.3594,142391.7344,186458.2188,187500.0000,187500.0000,31.947052,NaN,NaN,NaN
118468.1328,118869.6563,120082.6172,123614.3984,186150.4219,187500.0000,187500.0000,187500.0000,109183.1016,75312.4141,117586.2891,121984.2813,187486.6094,183209.9063,187500.0000,167603.8281,144621.9688,135730.0625,142466.0625,187500.0000,187500.0000,187500.0000,31.951050,NaN,NaN,NaN
118433.2422,118744.3516,120089.0781,123592.1094,186163.0000,187500.0000,187500.0000,187500.0000,109194.6406,75329.9141,117598.9141,121976.9531,187495.5000,183215.1406,187500.0000,167630.3438,144594.2188,135713.0781,142483.3750,187500.0000,187500.0000,187500.0000,31.955048,NaN,NaN,NaN
118068.3672,116185.8359,120387.6328,122632.0156,186438.5781,187500.0000,187500.0000,187500.0000,109555.7734,75467.7813,118086.3594,121680.7031,187500.0000,183169.7969,187500.0000,167434.2969,144211.0781,135470.2344,142403.5469,186208.4844,187500.0000,187500.0000,31.959045,NaN,NaN,NaN
117856.1172,114606.7969,120575.2109,122011.5078,186616.4688,187500.0000,187500.0000,187500.0000,109779.5625,75546.9453,118392.9844,121487.9375,187500.0000,183139.4375,187500.0000,167283.0469,143974.3594,135315.0625,142322.5156,184437.1094,187500.0000,187500.0000,31.963043,NaN,NaN,NaN
118099.1953,116368.7422,120350.2578,122641.0859,186421.9531,187500.0000,187500.0000,187500.0000,109507.8984,75421.1328,118036.9453,121669.8359,187500.0000,183161.6563,187500.0000,167391.9375,144231.1250,135470.5000,142349.7188,186416.7656,187500.0000,187500.0000,31.967041,NaN,NaN,NaN
118413.2109,118803.6719,120032.7734,123556.5469,186140.6563,187500.0000,187500.0000,187500.0000,109130.0391,75250.4297,117535.7031,121938.3750,187473.8125,183199.0781,187500.0000,167587.6719,144582.5625,135687.8438,142426.3594,187500.0000,187500.0000,187500.0000,31.971039,NaN,NaN,NaN
118382.7266,118706.1328,120036.5078,123544.7266,186150.9688,187500.0000,187500.0000,187500.0000,109139.4766,75266.1875,117543.5938,121934.8203,187480.2969,183205.1250,187500.0000,167617.8906,144559.0938,135673.8281,142444.9063,187500.0000,187500.0000,187500.0000,31.975037,NaN,NaN,NaN
118030.9766,116169.9219,120345.2734,122600.2109,186436.9688,187500.0000,187500.0000,187500.0000,109509.5547,75427.5000,118040.8750,121650.7266,187500.0000,183167.9531,187500.0000,167435.2188,144179.6094,135434.1563,142367.6719,186230.1406,187500.0000,187500.0000,31.979034,NaN,NaN,NaN
117809.0234,114558.6953,120530.4375,121964.1406,186611.8906,187500.0000,187500.0000,187500.0000,109731.0547,75490.1328,118346.4688,121449.5391,187500.0000,183132.5000,187500.0000,167275.3594,143943.3906,135280.7813,142290.1719,184433.4531,187500.0000,187500.0000,31.983032,NaN,NaN,NaN
118050.5781,116297.6641,120310.2734,122586.1016,186421.9219,187500.0000,187500.0000,187500.0000,109466.1875,75363.8672,117996.8906,121630.0938,187500.0000,183156.0625,187500.0000,167383.7188,144199.6094,135437.1094,142319.2813,186388.1563,187500.0000,187500.0000,31.987030,NaN,NaN,NaN
118376.5781,118755.6875,120001.1953,123516.4063,186149.2969,187500.0000,187500.0000,187500.0000,109095.5781,75217.8203,117503.8750,121909.4531,187477.7969,183200.7188,187500.0000,167590.5625,144551.5469,135654.0469,142394.6875,187500.0000,187500.0000,187500.0000,31.991028,NaN,NaN,NaN
118339.0469,118674.7500,119991.3594,123504.5156,186146.0625,187500.0000,187500.0000,187500.0000,109089.7656,75210.7813,117495.7422,121898.9453,187471.9688,183199.1563,187500.0000,167611.4375,144531.2500,135641.5938,142413.3750,187500.0000,187500.0000,187500.0000,31.995026,NaN,NaN,NaN
117986.6484,116147.2578,120296.8359,122562.4531,186428.8125,187500.0000,187500.0000,187500.0000,109457.8047,75363.7734,117988.6406,121614.1172,187500.0000,183162.2188,187500.0000,167427.8750,144154.8594,135404.2969,142338.3906,186256.3438,187500.0000,187500.0000,32.000000,NaN,NaN,NaN
117771.5859,114521.2188,120495.1406,121927.6406,186616.7813,187500.0000,187500.0000,187500.0000,109692.7266,75455.8203,118310.0156,121419.4297,187500.0000,183134.2500,187500.0000,167277.1563,143910.8906,135244.8125,142256.3125,184427.3906,187500.0000,187500.0000,32.003998,NaN,NaN,NaN
117995.9922,116220.3750,120264.9219,122525.9297,186416.2969,187500.0000,187500.0000,187500.0000,109417.4375,75309.7266,117952.1875,121584.3438,187500.0000,183146.1250,187500.0000,167369.4688,144157.8125,135393.2500,142279.0469,186347.1094,187500.0000,187500.0000,32.007996,NaN,NaN,NaN
118314.7109,118680.7188,119945.4219,123450.8672,186133.2813,187500.0000,187500.0000,187500.0000,109037.1953,75142.1563,117447.4141,121856.5859,187460.7500,183183.9375,187500.0000,167567.8750,144510.5938,135610.5313,142353.8281,187500.0000,187500.0000,187500.0000,32.011993,NaN,NaN,NaN
118299.3047,118648.4844,119948.9297,123468.1016,186144.1563,187500.0000,187500.0000,187500.0000,109044.2813,75167.3750,117451.0156,121866.5156,187465.3438,183196.8594,187500.0000,167609.6719,144498.6406,135604.5156,142376.8750,187500.0000,187500.0000,187500.0000,32.015991,NaN,NaN,NaN
117945.9297,116128.9531,120251.1094,122527.9922,186423.7500,187500.0000,187500.0000,187500.0000,109407.6484,75314.3594,117939.6875,121581.2813,187500.0000,183158.6094,187500.0000,167424.8594,144125.5781,135370.2969,142304.5156,186280.6875,187500.0000,187500.0000,32.019989,NaN,NaN,NaN
117717.9375,114467.3672,120443.5547,121874.1797,186605.3125,187500.0000,187500.0000,187500.0000,109638.2500,75383.8047,118256.4609,121375.2891,187500.0000,183123.8594,187500.0000,167262.7031,143880.1875,135210.6875,142224.2344,184424.5938,187500.0000,187500.0000,32.023987,NaN,NaN,NaN
117954.4844,116158.2344,120231.1719,122478.5703,186422.4375,187500.0000,187500.0000,187500.0000,109381.1875,75268.4219,117918.4141,121551.3516,187500.0000,183147.2656,187500.0000,167368.2031,144126.1719,135359.2969,142248.3594,186320.0625,187500.0000,187500.0000,32.027985,NaN,NaN,NaN
118277.6719,118632.0391,119913.4375,123410.3672,186141.0469,187500.0000,187500.0000,187500.0000,109001.3203,75106.2422,117414.5625,121827.0391,187463.6094,183187.4219,187500.0000,167569.3438,144481.4531,135578.3281,142323.9219,187500.0000,187500.0000,187500.0000,32.031982,NaN,NaN,NaN
118247.3828,118607.9609,119895.6719,123419.4922,186130.7500,187500.0000,187500.0000,187500.0000,108986.6797,75095.5547,117394.3281,121822.5938,187449.0469,183185.7031,187500.0000,167594.1563,144467.9531,135569.5000,142342.5625,187500.0000,187500.0000,187500.0000,32.035980,NaN,NaN,NaN
117900.0625,116103.7656,120200.9297,122488.3594,186413.6250,187500.0000,187500.0000,187500.0000,109353.2031,75255.5469,117885.5781,121542.9297,187500.0000,183150.1719,187500.0000,167415.5156,144093.7188,135333.5000,142268.2031,186298.4375,187500.0000,187500.0000,32.039978,NaN,NaN,NaN
117671.6016,114421.4141,120399.1875,121828.8281,186600.8125,187500.0000,187500.0000,187500.0000,109589.2109,75335.6094,118210.2578,121337.2031,187500.0000,183116.2344,187500.0000,167254.7656,143843.7031,135170.6719,142186.2188,184414.6406,187500.0000,187500.0000,32.043976,NaN,NaN,NaN
117895.3203,116079.2891,120180.3672,122414.7109,186411.1719,187500.0000,187500.0000,187500.0000,109327.0078,75198.1484,117866.9141,121501.5078,187500.0000,183132.0313,187500.0000,167348.2656,144087.5469,135318.5313,142210.8906,186285.5313,187500.0000,187500.0000,32.047974,NaN,NaN,NaN
118227.5156,118572.3359,119868.2188,123357.7109,186135.9844,187500.0000,187500.0000,187500.0000,108952.9922,75048.5313,117368.1797,121785.1328,187455.4219,183178.1875,187500.0000,167558.0156,144446.5625,135540.6563,142288.4063,187500.0000,187500.0000,187500.0000,32.051971,NaN,NaN,NaN
118209.9453,118582.9766,119856.3750,123385.4063,186132.0469,187500.0000,187500.0000,187500.0000,108943.0703,75053.6016,117352.4219,121792.3750,187445.6563,183184.2969,187500.0000,167594.3750,144440.0313,135537.5469,142311.0781,187500.0000,187500.0000,187500.0000,32.055969,NaN,NaN,NaN
117851.5547,116077.5859,120147.7266,122446.1563,186401.2188,187500.0000,187500.0000,187500.0000,109296.0938,75188.9844,117828.5781,121502.1094,187500.0000,183138.3906,187500.0000,167404.2500,144063.7344,135298.9688,142233.5313,186322.4375,187500.0000,187500.0000,32.059967,NaN,NaN,NaN
117622.3438,114373.9609,120351.2656,121780.3203,186593.3125,187500.0000,187500.0000,187500.0000,109538.4531,75277.2266,118160.4609,121295.8906,187500.0000,183105.6250,187500.0000,167244.6719,143808.5938,135132.2031,142149.2500,184410.9375,187500.0000,187500.0000,32.063965,NaN,NaN,NaN
117845.1016,116007.6953,120138.2969,122358.5625,186409.2500,187500.0000,187500.0000,187500.0000,109282.0547,75151.6563,117825.7188,121459.9141,187500.0000,183122.8906,187500.0000,167339.0313,144045.8750,135274.8594,142170.2031,186248.9063,187500.0000,187500.0000,32.067963,NaN,NaN,NaN
118170.5391,118502.3281,119816.7656,123296.7344,186124.5625,187500.0000,187500.0000,187500.0000,108898.3906,74981.8516,117316.2344,121736.7344,187441.8125,183163.3594,187500.0000,167539.8125,144405.8125,135497.5469,142247.4063,187500.0000,187500.0000,187500.0000,32.071960,NaN,NaN,NaN
118158.3359,118544.8672,119802.3516,123337.2109,186118.1563,187500.0000,187500.0000,187500.0000,108885.6719,74988.8516,117295.6016,121748.1797,187428.2656,183171.6250,187500.0000,167579.7656,144402.2031,135495.2188,142269.3438,187500.0000,187500.0000,187500.0000,32.075958,NaN,NaN,NaN
118158.3359,118544.8672,119802.3516,123337.2109,186118.1563,187500.0000,187500.0000,187500.0000,108885.6719,74988.8516,117295.6016,121748.1797,187428.2656,183171.6250,187500.0000,167579.7656,144402.2031,135495.2188,142269.3438,187500.0000,187500.0000,187500.0000,32.079956,NaN,NaN,NaN
117813.9609,116062.1641,120105.3750,122414.8906,186398.8750,187500.0000,187500.0000,187500.0000,109249.0391,75144.8672,117782.8516,121471.4219,187500.0000,183138.3906,187500.0000,167403.4688,144034.5469,135264.5781,142199.6250,186344.6250,187500.0000,187500.0000,32.083954,NaN,NaN,NaN
117574.8906,114326.7969,120305.7813,121733.6563,186587.6250,187500.0000,187500.0000,187500.0000,109489.1484,75218.0859,118113.1641,121256.6875,187500.0000,183101.6563,187500.0000,167235.2969,143777.6875,135097.6875,142117.0156,184406.2188,187500.0000,187500.0000,32.087952,NaN,NaN,NaN
117574.8906,114326.7969,120305.7813,121733.6563,186587.6250,187500.0000,187500.0000,187500.0000,109489.1484,75218.0859,118113.1641,121256.6875,187500.0000,183101.6563,187500.0000,167235.2969,143777.6875,135097.6875,142117.0156,184406.2188,187500.0000,187500.0000,32.091949,NaN,NaN,NaN
117798.5859,115939.9453,120099.8984,122306.4844,186410.5313,187500.0000,187500.0000,187500.0000,109241.0391,75099.1563,117787.2266,121421.8047,187500.0000,183121.7969,187500.0000,167331.7500,144014.0313,135240.7500,142139.7031,186219.3438,187500.0000,187500.0000,32.095947,NaN,NaN,NaN
118130.7734,118450.8984,119782.2109,123253.5703,186129.9375,187500.0000,187500.0000,187500.0000,108860.3203,74943.3828,117281.4766,121705.1563,187443.1563,183165.1250,187500.0000,167539.0781,144374.8125,135463.3906,142215.9375,187500.0000,187500.0000,187500.0000,32.099945,NaN,NaN,NaN
118117.5469,118516.6797,119759.4609,123299.7500,186115.6406,187500.0000,187500.0000,187500.0000,108838.8203,74934.0000,117250.0469,121715.5469,187422.6719,183169.5469,187500.0000,167576.2813,144377.9844,135466.5000,142241.3125,187500.0000,187500.0000,187500.0000,32.103943,NaN,NaN,NaN
118117.5469,118516.6797,119759.4609,123299.7500,186115.6406,187500.0000,187500.0000,187500.0000,108838.8203,74934.0000,117250.0469,121715.5469,187422.6719,183169.5469,187500.0000,167576.2813,144377.9844,135466.5000,142241.3125,187500.0000,187500.0000,187500.0000,32.107941,NaN,NaN,NaN
117776.6328,116048.9766,120062.4766,122384.3125,186396.7344,187500.0000,187500.0000,187500.0000,109203.2188,75092.5391,117736.4688,121442.2734,187500.0000,183137.6875,187500.0000,167404.0156,144011.8125,135236.8750,142171.9688,186377.3125,187500.0000,187500.0000,32.111938,NaN,NaN,NaN
117539.8438,114293.6953,120271.9609,121699.4297,186593.9844,187500.0000,187500.0000,187500.0000,109452.0859,75184.4453,118078.0469,121229.9141,187500.0000,183104.2031,187500.0000,167240.1875,143748.7188,135065.2188,142086.2344,184408.1250,187500.0000,187500.0000,32.115936,NaN,NaN,NaN
117747.8203,115867.3672,120056.8672,122245.3516,186389.6094,187500.0000,187500.0000,187500.0000,109190.2813,75040.1641,117741.3672,121376.0234,187500.0000,183109.9375,187500.0000,167311.8750,143967.8750,135194.9219,142093.4844,186187.2500,187500.0000,187500.0000,32.119934,NaN,NaN,NaN
117747.8203,115867.3672,120056.8672,122245.3516,186389.6094,187500.0000,187500.0000,187500.0000,109190.2813,75040.1641,117741.3672,121376.0234,187500.0000,183109.9375,187500.0000,167311.8750,143967.8750,135194.9219,142093.4844,186187.2500,187500.0000,187500.0000,32.123932,NaN,NaN,NaN
118082.0469,118389.6563,119736.7969,123189.2891,186076.7969,187500.0000,187500.0000,187500.0000,108799.4844,74876.9531,117227.0078,121653.8594,187423.5000,183147.0156,187500.0000,167504.2188,144312.9375,135404.8281,142150.0938,187500.0000,187500.0000,187500.0000,32.127930,NaN,NaN,NaN
118079.9688,118490.3906,119717.9531,123252.6328,186062.9063,187500.0000,187500.0000,187500.0000,108779.4063,74885.2500,117197.2969,121673.8438,187404.0625,183156.2031,187500.0000,167549.5938,144316.7813,135407.3281,142172.6406,187500.0000,187500.0000,187500.0000,32.131927,NaN,NaN,NaN
117725.5859,116018.6016,120005.1250,122327.0000,186327.3125,187500.0000,187500.0000,187500.0000,109126.8203,75016.2266,117666.5313,121388.0703,187500.0000,183111.3125,187500.0000,167362.6563,143948.0469,135174.6563,142099.8281,186391.9219,187500.0000,187500.0000,32.135925,NaN,NaN,NaN
117725.5859,116018.6016,120005.1250,122327.0000,186327.3125,187500.0000,187500.0000,187500.0000,109126.8203,75016.2266,117666.5313,121388.0703,187500.0000,183111.3125,187500.0000,167362.6563,143948.0469,135174.6563,142099.8281,186391.9219,187500.0000,187500.0000,32.139923,NaN,NaN,NaN
117484.8516,114239.0469,120216.5938,121632.7109,186525.8438,187500.0000,187500.0000,187500.0000,109379.4219,75105.2578,118011.6406,121172.6250,187500.0000,183076.7656,187500.0000,167196.5469,143682.2344,135001.4688,142014.3281,184396.8281,187500.0000,187500.0000,32.143921,NaN,NaN,NaN
117703.0313,115803.0234,120018.1094,122187.5313,186355.1094,187500.0000,187500.0000,187500.0000,109139.5000,74994.5234,117697.1328,121332.7734,187500.0000,183097.0781,187500.0000,167289.7031,143909.5625,135138.1250,142033.4688,186151.4844,187500.0000,187500.0000,32.147919,NaN,NaN,NaN
117703.0313,115803.0234,120018.1094,122187.5313,186355.1094,187500.0000,187500.0000,187500.0000,109139.5000,74994.5234,117697.1328,121332.7734,187500.0000,183097.0781,187500.0000,167289.7031,143909.5625,135138.1250,142033.4688,186151.4844,187500.0000,187500.0000,32.151917,NaN,NaN,NaN
118029.6094,118325.7969,119689.4766,123133.1875,186063.1406,187500.0000,187500.0000,187500.0000,108747.4922,74817.1172,117178.5938,121609.8672,187412.7031,183135.3906,187500.0000,167488.7969,144273.8906,135363.1719,142110.3906,187500.0000,187500.0000,187500.0000,32.155914,NaN,NaN,NaN
118028.8047,118449.7344,119665.3125,123204.4688,186047.6250,187500.0000,187500.0000,187500.0000,108723.6875,74816.4063,117142.0703,121631.3516,187389.3281,183145.3750,187500.0000,167535.6563,144284.1094,135370.3594,142136.5938,187500.0000,187500.0000,187500.0000,32.159912,NaN,NaN,NaN
117643.3750,115721.5938,119967.2188,122122.5547,186341.8125,187500.0000,187500.0000,187500.0000,109086.3203,74923.2891,117646.2578,121283.0859,187500.0000,183084.6719,187500.0000,167270.5625,143870.6875,135097.2031,141995.9531,186115.0313,187500.0000,187500.0000,32.163910,NaN,NaN,NaN
117983.7031,118265.3750,119649.6406,123083.2969,186061.5313,187500.0000,187500.0000,187500.0000,108705.4922,74774.1563,117138.5781,121572.1641,187408.8438,183132.0000,187500.0000,167483.0938,144234.9375,135321.6094,142071.5781,187500.0000,187500.0000,187500.0000,32.167908,NaN,NaN,NaN
117637.0469,115972.8750,119907.5156,122251.0938,186306.3438,187500.0000,187500.0000,187500.0000,109022.2188,74901.6797,117561.9922,121314.9141,187500.0000,183100.4063,187500.0000,167349.0625,143887.3125,135104.1250,142030.3281,186433.2344,187500.0000,187500.0000,32.171906,NaN,NaN,NaN
117396.1406,114152.9453,120131.2109,121546.2344,186516.8750,187500.0000,187500.0000,187500.0000,109287.5781,75007.0000,117923.2422,121100.6094,187500.0000,183070.7344,187500.0000,167186.7031,143615.7188,134927.8906,141944.7969,184386.6406,187500.0000,187500.0000,32.175903,NaN,NaN,NaN
117604.5234,115660.1250,119937.1328,122077.8281,186350.0000,187500.0000,187500.0000,187500.0000,109053.5781,74889.2500,117617.0859,121252.4688,187500.0000,183088.7031,187500.0000,167272.6875,143839.4531,135064.0469,141966.3438,186085.3281,187500.0000,187500.0000,32.179901,NaN,NaN,NaN
117941.6328,118383.7969,119575.7266,123123.3516,186035.1875,187500.0000,187500.0000,187500.0000,108626.6797,74712.8281,117047.5234,121559.1563,187372.7188,183135.9531,187500.0000,167524.3594,144222.0156,135300.0938,142067.9688,187500.0000,187500.0000,187500.0000,32.183899,NaN,NaN,NaN
117600.9531,115958.6328,119867.1016,122221.4609,186304.9063,187500.0000,187500.0000,187500.0000,108977.6719,74859.5625,117518.5625,121286.1016,187500.0000,183100.7500,187500.0000,167351.1719,143861.0469,135073.3125,141999.5938,186459.6719,187500.0000,187500.0000,32.187897,NaN,NaN,NaN
117551.8203,115586.7656,119892.8984,122020.0938,186344.2969,187500.0000,187500.0000,187500.0000,109006.9297,74832.1406,117572.8984,121208.2109,187500.0000,183080.7031,187500.0000,167260.7500,143801.6875,135024.3750,141930.1250,186052.1563,187500.0000,187500.0000,32.191895,NaN,NaN,NaN
117889.5078,118143.7422,119567.7500,122981.7969,186056.3906,187500.0000,187500.0000,187500.0000,108617.6484,74668.0313,117055.8828,121494.4922,187401.6250,183123.2031,187500.0000,167468.0000,144170.1563,135251.6719,142006.8594,187500.0000,187500.0000,187500.0000,32.195892,NaN,NaN,NaN
117890.6094,118343.4531,119523.4688,123075.5625,186021.8906,187500.0000,187500.0000,187500.0000,108571.0703,74646.2422,116992.8047,121516.5703,187358.3125,183125.5156,187500.0000,167511.3594,144189.0469,135262.8750,142031.7031,187500.0000,187500.0000,187500.0000,32.199890,NaN,NaN,NaN
117554.3906,115931.2969,119816.5859,122180.7344,186293.4844,187500.0000,187500.0000,187500.0000,108923.6250,74799.7734,117464.6953,121247.8359,187500.0000,183091.3750,187500.0000,167342.1406,143828.8438,135036.2969,141963.3438,186476.3125,187500.0000,187500.0000,32.203888,NaN,NaN,NaN
117301.1250,114060.4766,120039.9531,121453.7422,186502.9219,187500.0000,187500.0000,187500.0000,109189.2031,74895.6406,117828.5391,121023.0234,187500.0000,183056.4063,187500.0000,167170.0781,143550.9063,134856.0313,141877.1094,184379.9375,187500.0000,187500.0000,32.207886,NaN,NaN,NaN
117496.6328,115513.6797,119845.1797,121960.6797,186334.8438,187500.0000,187500.0000,187500.0000,108956.1250,74769.0000,117524.9531,121162.7031,187500.0000,183068.4531,187500.0000,167245.0469,143764.0469,134984.1719,141893.3906,186021.2031,187500.0000,187500.0000,32.211884,NaN,NaN,NaN
117835.8906,118079.3203,119519.0625,122925.3359,186046.3906,187500.0000,187500.0000,187500.0000,108566.1094,74607.2344,117006.4609,121449.2500,187390.0000,183111.7031,187500.0000,167452.9219,144130.6094,135209.2813,141967.0313,187500.0000,187500.0000,187500.0000,32.215881,NaN,NaN,NaN
117849.0313,118311.4453,119480.7578,123036.6719,186018.2969,187500.0000,187500.0000,187500.0000,108524.1094,74601.1797,116947.7656,121481.8594,187350.9531,183122.1875,187500.0000,167507.0469,144155.7656,135225.5469,141995.4688,187500.0000,187500.0000,187500.0000,32.219879,NaN,NaN,NaN
117503.6563,115902.5313,119761.4688,122136.4063,186277.5781,187500.0000,187500.0000,187500.0000,108864.4609,74732.9688,117406.1328,121204.5234,187500.0000,183079.6875,187500.0000,167328.5781,143795.2031,134997.8438,141925.2344,186494.7188,187500.0000,187500.0000,32.223877,NaN,NaN,NaN
117250.6563,114014.1172,119990.3984,121404.8594,186492.5156,187500.0000,187500.0000,187500.0000,109137.1250,74834.6641,117777.2344,120980.7344,187500.0000,183046.4531,187500.0000,167159.1094,143515.6094,134817.1406,141839.8906,184377.0781,187500.0000,187500.0000,32.227875,NaN,NaN,NaN
117451.2344,115446.6641,119808.2734,121909.5625,186336.7188,187500.0000,187500.0000,187500.0000,108916.4922,74728.2734,117488.7188,121125.8906,187500.0000,183064.3125,187500.0000,167240.9688,143726.8281,134944.8906,141857.2344,185987.8750,187500.0000,187500.0000,32.231873,NaN,NaN,NaN
117787.0938,118017.2266,119476.4609,122872.8125,186042.5313,187500.0000,187500.0000,187500.0000,108520.5781,74551.2031,116963.3203,121409.3281,187385.3438,183103.8750,187500.0000,167444.0000,144098.6563,135174.8281,141934.7500,187500.0000,187500.0000,187500.0000,32.235870,NaN,NaN,NaN
117806.1875,118279.0156,119436.8750,122996.6641,186013.4688,187500.0000,187500.0000,187500.0000,108477.5469,74546.7109,116901.2734,121447.1250,187344.4688,183116.8906,187500.0000,167502.7656,144127.7969,135193.5313,141963.9531,187500.0000,187500.0000,187500.0000,32.239868,NaN,NaN,NaN
117470.1719,115890.8438,119723.4688,122109.3672,186278.9219,187500.0000,187500.0000,187500.0000,108822.3672,74696.3750,117364.6016,121178.1016,187500.0000,183081.0469,187500.0000,167333.0469,143768.1875,134966.1719,141893.8125,186519.9844,187500.0000,187500.0000,32.243866,NaN,NaN,NaN
117202.7344,113968.8828,119943.9297,121358.6328,186484.9375,187500.0000,187500.0000,187500.0000,109086.9219,74776.6641,117728.5078,120940.9063,187500.0000,183039.6406,187500.0000,167149.6875,143482.5469,134780.8750,141805.3594,184373.5938,187500.0000,187500.0000,32.247864,NaN,NaN,NaN
117398.9141,115374.0000,119764.1953,121852.3438,186331.3594,187500.0000,187500.0000,187500.0000,108870.4063,74670.1563,117444.4688,121082.2813,187500.0000,183057.2656,187500.0000,167228.7656,143689.0938,134905.2031,141820.9375,185953.4688,187500.0000,187500.0000,32.251862,NaN,NaN,NaN
117743.9766,117959.4063,119439.5391,122825.9375,186044.4688,187500.0000,187500.0000,187500.0000,108480.7031,74513.2891,116926.6016,121374.3750,187384.0313,183103.5781,187500.0000,167440.7188,144060.9219,135134.4688,141897.2500,187500.0000,187500.0000,187500.0000,32.255859,NaN,NaN,NaN
117756.5391,118240.1172,119385.9844,122950.3047,186001.5781,187500.0000,187500.0000,187500.0000,108422.5859,74484.3281,116848.3203,121405.9297,187331.1875,183109.2656,187500.0000,167490.6719,144094.2031,135155.5781,141927.1719,187500.0000,187500.0000,187500.0000,32.259857,NaN,NaN,NaN
117423.5859,115866.4531,119672.0859,122069.3984,186266.6719,187500.0000,187500.0000,187500.0000,108767.9688,74630.9297,117310.1328,121140.1016,187500.0000,183075.0156,187500.0000,167323.9688,143739.4844,134932.5781,141860.6563,186542.9531,187500.0000,187500.0000,32.263855,NaN,NaN,NaN
117164.4453,113933.2266,119906.7813,121321.6875,186486.6563,187500.0000,187500.0000,187500.0000,109046.4922,74739.8047,117690.2656,120911.5547,187500.0000,183040.4688,187500.0000,167151.2813,143450.4219,134744.8750,141771.3906,184371.3906,187500.0000,187500.0000,32.267853,NaN,NaN,NaN
117345.9375,115299.5938,119719.7188,121793.9375,186325.3125,187500.0000,187500.0000,187500.0000,108822.5000,74613.4063,117400.4766,121039.4766,187500.0000,183047.4531,187500.0000,167216.2031,143650.9531,134864.9063,141783.9531,185917.7813,187500.0000,187500.0000,32.271851,NaN,NaN,NaN
117688.6172,117888.7266,119390.4766,122766.3672,186034.0469,187500.0000,187500.0000,187500.0000,108429.2734,74446.4609,116877.1094,121328.7969,187373.1719,183090.1250,187500.0000,167424.5938,144024.1094,135095.1250,141860.4531,187500.0000,187500.0000,187500.0000,32.275848,NaN,NaN,NaN
117721.1094,118213.3438,119349.3906,122917.3359,186004.1250,187500.0000,187500.0000,187500.0000,108382.7344,74449.2578,116809.3594,121378.7109,187329.2969,183107.8906,187500.0000,167493.2188,144063.5156,135120.8750,141893.2031,187500.0000,187500.0000,187500.0000,32.279846,NaN,NaN,NaN
117383.1328,115848.2188,119627.0938,122035.8281,186260.7969,187500.0000,187500.0000,187500.0000,108718.1641,74580.2109,117261.1172,121107.9141,187500.0000,183068.9219,187500.0000,167320.2969,143712.1719,134900.2188,141828.3594,186567.2344,187500.0000,187500.0000,32.283844,NaN,NaN,NaN
117113.3047,113885.5781,119856.9375,121272.7578,186475.6563,187500.0000,187500.0000,187500.0000,108993.3125,74671.2969,117637.7656,120869.0859,187500.0000,183030.4531,187500.0000,167138.2188,143420.9219,134711.6719,141739.9844,184372.4531,187500.0000,187500.0000,32.287842,NaN,NaN,NaN
117113.3047,113885.5781,119856.9375,121272.7578,186475.6563,187500.0000,187500.0000,187500.0000,108993.3125,74671.2969,117637.7656,120869.0859,187500.0000,183030.4531,187500.0000,167138.2188,143420.9219,134711.6719,141739.9844,184372.4531,187500.0000,187500.0000,32.291840,NaN,NaN,NaN
117307.1563,115241.1172,119688.8281,121750.5547,186333.1875,187500.0000,187500.0000,187500.0000,108789.1797,74578.8516,117369.5391,121008.3594,187500.0000,183051.4375,187500.0000,167217.6406,143619.6719,134831.3438,141753.9531,185891.6563,187500.0000,187500.0000,32.295837,NaN,NaN,NaN
117645.5859,117833.2500,119353.3906,122720.3047,186035.5938,187500.0000,187500.0000,187500.0000,108388.3672,74402.2500,116839.2500,121292.8516,187371.8125,183090.1094,187500.0000,167420.4531,143992.0781,135060.3906,141828.5469,187500.0000,187500.0000,187500.0000,32.299835,NaN,NaN,NaN
117666.8672,118167.8828,119294.8516,122865.8359,185988.5938,187500.0000,187500.0000,187500.0000,108324.2422,74373.8594,116751.8984,121331.5938,187312.7031,183096.6250,187500.0000,167476.0313,144032.5156,135085.8750,141859.3594,187500.0000,187500.0000,187500.0000,32.303833,NaN,NaN,NaN
117341.6016,115827.0703,119581.4688,122000.1328,186254.4688,187500.0000,187500.0000,187500.0000,108668.6797,74529.6953,117211.9844,121073.0938,187500.0000,183064.8750,187500.0000,167316.3750,143681.3281,134864.8594,141793.5000,186587.2969,187500.0000,187500.0000,32.307831,NaN,NaN,NaN
117072.0156,113848.0703,119816.6094,121232.9766,186474.4219,187500.0000,187500.0000,187500.0000,108948.9688,74628.6953,117595.4766,120835.7422,187500.0000,183026.5625,187500.0000,167136.1250,143387.5313,134674.9375,141704.7813,184370.9063,187500.0000,187500.0000,32.311829,NaN,NaN,NaN
117248.5547,115160.7422,119638.9609,121686.3125,186321.9688,187500.0000,187500.0000,187500.0000,108736.8281,74509.0000,117319.4766,120959.4297,187500.0000,183035.7031,187500.0000,167199.3281,143581.4531,134791.3125,141717.1563,185856.4531,187500.0000,187500.0000,32.315826,NaN,NaN,NaN
117596.6172,117767.1797,119311.4141,122666.6563,186032.6250,187500.0000,187500.0000,187500.0000,108343.9766,74349.6328,116796.9375,121252.8203,187366.9844,183081.8750,187500.0000,167411.4531,143956.4688,135022.5000,141793.3750,187500.0000,187500.0000,187500.0000,32.319824,NaN,NaN,NaN
117626.8594,118137.3906,119253.9531,122828.8438,185986.8906,187500.0000,187500.0000,187500.0000,108279.3594,74330.3203,116708.6016,121299.4063,187307.9063,183094.1563,187500.0000,167474.2813,144002.2031,135051.5625,141825.9219,187500.0000,187500.0000,187500.0000,32.323822,NaN,NaN,NaN
117626.8594,118137.3906,119253.9531,122828.8438,185986.8906,187500.0000,187500.0000,187500.0000,108279.3594,74330.3203,116708.6016,121299.4063,187307.9063,183094.1563,187500.0000,167474.2813,144002.2031,135051.5625,141825.9219,187500.0000,187500.0000,187500.0000,32.327820,NaN,NaN,NaN
117291.2422,115798.3047,119526.9297,121956.7031,186239.2188,187500.0000,187500.0000,187500.0000,108610.3672,74459.5156,117153.7109,121030.6719,187500.0000,183055.3750,187500.0000,167303.5156,143652.0625,134830.7500,141760.0156,186609.3438,187500.0000,187500.0000,32.331818,NaN,NaN,NaN
117019.2422,113796.7500,119765.7578,121181.9688,186462.8438,187500.0000,187500.0000,187500.0000,108895.4609,74566.8438,117542.8828,120791.1250,187500.0000,183017.9531,187500.0000,167123.0000,143350.7656,134634.4063,141667.0469,184362.9688,187500.0000,187500.0000,32.335815,NaN,NaN,NaN
117019.2422,113796.7500,119765.7578,121181.9688,186462.8438,187500.0000,187500.0000,187500.0000,108895.4609,74566.8438,117542.8828,120791.1250,187500.0000,183017.9531,187500.0000,167123.0000,143350.7656,134634.4063,141667.0469,184362.9688,187500.0000,187500.0000,32.339813,NaN,NaN,NaN
117196.6719,115088.5938,119595.5547,121630.0781,186317.5625,187500.0000,187500.0000,187500.0000,108690.2500,74461.0156,117276.4453,120916.0234,187500.0000,183029.6250,187500.0000,167188.4531,143539.4531,134747.1094,141677.0625,185818.4219,187500.0000,187500.0000,32.343811,NaN,NaN,NaN
117536.8672,117693.8438,119258.1563,122603.8047,186018.3594,187500.0000,187500.0000,187500.0000,108287.8281,74280.4531,116743.1094,121201.8594,187351.6406,183068.0156,187500.0000,167391.4531,143914.9219,134978.4219,141752.3281,187500.0000,187500.0000,187500.0000,32.347809,NaN,NaN,NaN
117536.8672,117693.8438,119258.1563,122603.8047,186018.3594,187500.0000,187500.0000,187500.0000,108287.8281,74280.4531,116743.1094,121201.8594,187351.6406,183068.0156,187500.0000,167391.4531,143914.9219,134978.4219,141752.3281,187500.0000,187500.0000,187500.0000,32.351807,NaN,NaN,NaN
117574.9297,118093.2031,119201.8750,122779.2266,185974.2344,187500.0000,187500.0000,187500.0000,108224.2578,74268.2734,116654.1953,121255.7031,187292.7656,183082.6406,187500.0000,167460.9688,143964.0313,135009.4219,141785.0938,187500.0000,187500.0000,187500.0000,32.355804,NaN,NaN,NaN
117249.8906,115777.8984,119481.4453,121921.5859,186233.6094,187500.0000,187500.0000,187500.0000,108560.9219,74412.9141,117105.0781,120997.3438,187500.0000,183049.6250,187500.0000,167300.4063,143619.6094,134793.5938,141723.3125,186627.5625,187500.0000,187500.0000,32.359802,NaN,NaN,NaN
117249.8906,115777.8984,119481.4453,121921.5859,186233.6094,187500.0000,187500.0000,187500.0000,108560.9219,74412.9141,117105.0781,120997.3438,187500.0000,183049.6250,187500.0000,167300.4063,143619.6094,134793.5938,141723.3125,186627.5625,187500.0000,187500.0000,32.363800,NaN,NaN,NaN
116970.1406,113751.8672,119717.7500,121134.7188,186454.2031,187500.0000,187500.0000,187500.0000,108844.3672,74505.9141,117493.0781,120751.5625,187500.0000,183008.4375,187500.0000,167113.5938,143319.1719,134599.4531,141633.6406,184363.5781,187500.0000,187500.0000,32.367798,NaN,NaN,NaN
117145.7813,115015.3672,119553.5078,121573.4375,186314.6094,187500.0000,187500.0000,187500.0000,108646.5313,74406.8125,117235.0313,120874.9922,187500.0000,183020.9531,187500.0000,167179.0625,143502.5313,134708.3438,141641.5625,185784.2969,187500.0000,187500.0000,32.371796,NaN,NaN,NaN
117493.8594,117634.6797,119221.8750,122556.3750,186021.2500,187500.0000,187500.0000,187500.0000,108248.6641,74240.6250,116707.1016,121167.6875,187352.0469,183064.6875,187500.0000,167388.8750,143880.1406,134941.1875,141717.8594,187500.0000,187500.0000,187500.0000,32.375793,NaN,NaN,NaN
117525.4922,118051.5391,119152.0938,122732.3047,185963.7656,187500.0000,187500.0000,187500.0000,108171.1094,74206.0234,116602.1406,121214.8047,187280.7500,183072.2656,187500.0000,167449.5156,143931.7969,134973.1563,141750.0469,187500.0000,187500.0000,187500.0000,32.379791,NaN,NaN,NaN
