Fp1,Fp2,F3,F4,C3,C4,P3,P4,O1,O2,F7,F8,T7,T8,P7,P8,Fz,Cz,Pz,AFz,Cpz,POz,TimeStamp
14544.1904,-7909.7681,-8015.1787,-8385.3457,70945.3984,-11508.3984,84757.0313,-11455.6260,-8422.2939,-9357.6914,-6567.8140,-8577.9736,100948.0938,-11521.1836,-11468.9707,-11484.7285,37350.8359,-9213.1650,-9645.3135,-11589.5137,-11516.0879,79752.2031,7.167969
8465.9688,5170.6514,5033.9478,4500.7471,71129.8672,-5279.7056,84957.9297,-5231.0234,4033.4617,2981.2532,6818.7568,4260.6001,101171.9063,-5289.7412,-5246.7363,-5257.3091,37577.1719,3124.5056,2624.0276,-5363.7256,-5288.5117,79790.0234,7.171967
13048.1875,-5144.0078,-5118.0127,-5760.8491,70644.0078,-9611.6748,84606.4219,-9559.9082,-6068.2749,-6423.4663,-3265.0532,-5831.7266,100959.8750,-9623.4092,-9574.1230,-9588.2500,37198.6641,-6528.8550,-6653.1528,-9693.2363,-9619.6768,79597.9766,7.175964
22463.7480,-18685.9902,-18724.9277,-18807.2930,70144.1953,-18805.4375,84165.4453,-18749.3125,-18695.3105,-18711.0020,-18558.5859,-18769.7422,100587.5625,-18823.3652,-18760.0195,-18780.1816,36720.0273,-18780.0684,-18799.8730,-18886.5742,-18812.5918,79436.7109,7.179962
23695.4414,-19900.2500,-19946.9648,-19999.0879,70334.8594,-19958.8105,84248.5078,-19902.4844,-19874.0977,-19882.3457,-19884.3125,-19959.2793,100567.0625,-19977.8984,-19912.6328,-19933.5977,36799.5078,-19950.8086,-19967.1699,-20040.2148,-19966.0742,79531.5469,7.183960
15022.3838,-8116.8120,-8156.7993,-8670.2188,70920.8516,-11398.6514,84719.9922,-11345.9463,-8713.0898,-9506.2188,-6503.1729,-8873.3291,100935.2422,-11411.3926,-11359.4248,-11375.1152,37305.4609,-9489.3877,-9823.0547,-11479.6543,-11406.3633,79728.6016,7.187958
9385.1846,4225.6865,4184.4028,3556.4082,70980.3750,-6001.1304,84841.2734,-5951.6211,3127.7241,2176.5681,5975.0459,3305.1523,101138.4219,-6011.5015,-5967.6025,-5978.8457,37463.7344,2190.8955,1728.9968,-6084.3457,-6009.8027,79710.8125,7.191956
13824.3301,-7157.7212,-7150.4346,-7492.1479,70423.1484,-10680.7139,84443.3438,-10628.2314,-7644.6318,-7834.1299,-6114.7441,-7507.7046,100911.1719,-10692.8281,-10642.0898,-10656.9766,37065.6523,-7943.8096,-8029.6406,-10761.7383,-10688.4023,79493.3984,7.195953
22623.2285,-19530.3730,-19575.4121,-19628.4063,69968.2891,-19594.9023,84035.8984,-19538.6211,-19505.6738,-19513.1836,-19523.5781,-19587.4590,100559.2891,-19613.4316,-19548.9238,-19569.5098,36625.5000,-19581.7813,-19599.1484,-19676.1055,-19601.8984,79353.0938,7.199951
23041.5859,-19836.1895,-19883.9766,-19940.3477,70300.3203,-19934.0449,84219.2031,-19877.7188,-19814.6875,-19844.4375,-19794.0117,-19905.6582,100587.2734,-19953.1113,-19887.8438,-19908.7656,36789.8086,-19906.2402,-19933.3750,-20015.4063,-19941.0859,79507.6797,7.203949
13823.1006,-6244.9878,-6333.2324,-6613.9033,71016.0469,-10477.8047,84776.0703,-10425.8369,-6605.4321,-7425.5620,-4977.7559,-6778.1440,100981.8047,-10490.2764,-10439.6279,-10454.4023,37375.2461,-7204.4585,-7706.3223,-10559.4551,-10485.7842,79764.5703,7.207947
8280.9639,5709.9316,5598.1729,5120.2705,71145.1563,-4674.5098,84941.4063,-4626.2744,4666.7534,3885.8059,7175.2896,4931.9570,101191.6406,-4684.4785,-4642.7256,-4652.6050,37556.9883,4008.6958,3590.5393,-4759.7813,-4683.9644,79773.8906,7.211945
13358.4746,-5136.3638,-5055.2715,-5775.7129,70566.4219,-9617.5977,84527.7656,-9565.8535,-6107.9717,-6442.5547,-3362.4846,-5842.2095,100953.6641,-9629.2432,-9580.2256,-9594.2852,37116.8594,-6590.7915,-6711.4238,-9699.6289,-9625.8008,79539.3047,7.215942
22937.0684,-19127.3027,-19162.2383,-19251.2441,69983.0000,-19254.7090,84029.3438,-19198.4941,-19141.4512,-19157.1660,-19006.9160,-19214.1406,100554.7734,-19272.9707,-19209.0000,-19229.2500,36597.0000,-19228.3105,-19247.5996,-19335.8672,-19261.6602,79344.3516,7.219940
23912.6328,-20392.8359,-20439.6406,-20491.1621,70169.8125,-20451.1758,84113.5469,-20394.6465,-20366.6406,-20374.3066,-20380.0293,-20451.3320,100542.5938,-20470.5547,-20404.5039,-20425.5605,36680.4844,-20443.0840,-20459.0195,-20532.5137,-20458.0371,79434.9922,7.223938
14762.5439,-8319.2969,-8362.5693,-8846.7529,70812.4219,-11552.9902,84626.0938,-11500.5313,-8919.1504,-9614.0215,-6774.5454,-9008.2441,100935.9609,-11565.9102,-11513.4502,-11529.2305,37227.6563,-9586.3271,-9902.6494,-11634.1045,-11560.6797,79656.1641,7.227936
8697.1748,4574.9771,4527.0552,3865.3765,70946.3984,-5640.3730,84795.7891,-5592.0933,3367.7148,2486.0950,6438.4419,3650.3079,101156.2578,-5651.0347,-5605.5493,-5616.7251,37435.7734,2531.7598,2106.8530,-5724.6392,-5647.5034,79674.6484,7.231934
12980.7305,-5952.5820,-5895.9653,-6437.9951,70467.9844,-9910.5400,84449.5781,-9858.7285,-6683.7749,-6921.4409,-4169.4941,-6463.4312,100947.0938,-9922.3633,-9871.9609,-9886.4668,37073.1836,-7024.7729,-7116.1021,-9992.0342,-9917.5137,79491.9609,7.235931
21910.2734,-18569.7383,-18610.0625,-18676.4473,70045.1094,-18653.7598,84061.3516,-18597.7910,-18557.7363,-18567.4141,-18484.0645,-18636.0117,100594.7578,-18671.5508,-18608.3184,-18628.5918,36638.4648,-18635.6992,-18654.4297,-18734.7852,-18660.8672,79361.0703,7.239929
22687.3320,-19071.4238,-19118.0273,-19176.5000,70333.3359,-19171.7617,84210.9531,-19115.9258,-19050.5254,-19081.5488,-19020.2832,-19141.5195,100599.9219,-19190.1797,-19126.0527,-19146.6816,36775.0781,-19142.4141,-19170.7324,-19252.9883,-19179.0254,79495.8984,7.243927
13925.6953,-5918.3169,-5977.2139,-6295.4131,70967.8828,-10214.3672,84712.7969,-10162.6230,-6287.2998,-7103.8086,-4583.2920,-6447.6064,100974.8047,-10226.5713,-10176.2793,-10190.9424,37311.2969,-6890.1709,-7382.4233,-10295.6826,-10222.2568,79715.3516,7.247925
8678.5781,5329.1699,5270.7646,4789.4424,71015.3750,-4943.5576,84823.7734,-4895.1660,4365.6753,3672.9055,6869.5181,4632.5332,101169.0859,-4953.6606,-4911.1475,-4921.2280,37446.1211,3764.9053,3393.7322,-5027.8013,-4952.6099,79688.3281,7.251923
13689.9736,-6357.7075,-6282.6060,-6794.7959,70391.6328,-10133.5654,84377.9688,-10081.4639,-7007.8750,-7206.5820,-4731.9536,-6809.9282,100918.4141,-10145.5010,-10095.3662,-10109.8506,36989.5195,-7346.0347,-7422.4331,-10214.9932,-10141.4775,79437.8281,7.255920
22870.5508,-19501.1582,-19541.7266,-19605.2734,69846.2266,-19581.6250,83907.1250,-19525.2754,-19485.6699,-19494.3633,-19435.4453,-19564.6816,100537.6094,-19600.3105,-19535.6250,-19556.2109,36499.9961,-19564.2793,-19581.8047,-19662.9629,-19588.7773,79262.9922,7.259918
23325.4531,-20160.6250,-20207.6309,-20263.9785,70121.8047,-20245.0020,84053.8203,-20188.6758,-20139.9277,-20162.2109,-20130.6953,-20227.7695,100558.1250,-20264.4707,-20198.7559,-20219.7441,36639.2227,-20227.3008,-20249.6523,-20326.6309,-20252.2227,79393.4844,7.263916
13841.1836,-6822.2217,-6889.9028,-7225.0894,70838.7344,-10802.6650,84614.3125,-10750.5625,-7261.6123,-8078.8364,-5576.0000,-7382.8926,100966.7813,-10815.2041,-10764.1748,-10779.1504,37232.2617,-7879.9282,-8344.7773,-10884.1367,-10810.5547,79650.0156,7.267914
7865.8916,5757.1387,5646.6987,5144.9468,71015.6484,-4676.5884,84811.3672,-4628.3979,4622.5195,3765.3523,7117.5996,4955.5381,101191.5938,-4686.4902,-4644.6475,-4654.4824,37452.6484,3911.9797,3483.1169,-4761.7485,-4685.9092,79686.2422,7.271912
12558.3047,-4072.4878,-4010.6851,-4761.2568,70523.9297,-9119.4668,84455.5703,-9067.9463,-5226.8213,-5723.2534,-2540.1638,-4838.6382,100973.0000,-9130.7324,-9082.3184,-9095.9746,37060.9805,-5850.9268,-6007.3887,-9201.4307,-9127.4463,79489.4141,7.275909
21955.4023,-18117.9434,-18151.0918,-18253.8418,69999.3125,-18295.4160,83999.3281,-18239.5371,-18156.2988,-18185.4453,-17988.2148,-18218.1465,100588.2109,-18312.6934,-18250.1309,-18269.8906,36567.5859,-18256.5469,-18279.4570,-18376.1953,-18302.3008,79328.2578,7.279907
23051.9336,-19237.7441,-19283.3848,-19341.2324,70173.4297,-19313.4258,84075.8828,-19257.3906,-19217.0449,-19234.6133,-19208.3066,-19303.5469,100566.7109,-19331.8223,-19267.5391,-19288.0566,36642.9805,-19300.5293,-19321.0488,-19394.5410,-19320.4219,79426.2266,7.283905
14340.9678,-6849.9824,-6867.3945,-7322.3643,70752.6797,-10713.7500,84544.2656,-10661.5586,-7382.5796,-8240.9980,-5511.7388,-7485.9121,100937.8359,-10726.1992,-10675.1035,-10690.1465,37149.0898,-8094.4604,-8573.2793,-10794.9092,-10721.7070,79620.8906,7.287903
8801.7363,4841.0303,4831.9775,4238.9189,70797.2266,-5413.0557,84654.9688,-5364.5972,3767.3418,2971.2844,6434.9331,4069.7832,101135.0469,-5423.6284,-5379.7520,-5390.4585,37296.7695,3061.1606,2626.1958,-5496.5845,-5421.7285,79597.4453,7.291901
13350.2051,-6592.1997,-6524.1611,-6999.0239,70238.8828,-10203.7725,84255.9297,-10151.7148,-7207.8560,-7377.2822,-5122.0361,-7000.8120,100906.2109,-10215.7754,-10165.1709,-10179.9453,36890.7031,-7490.0693,-7559.2256,-10285.1104,-10211.3721,79380.6094,7.295898
22112.5801,-19010.5820,-19052.5586,-19111.5449,69795.7109,-19081.6621,83856.7891,-19025.3574,-18990.3535,-18998.1328,-18966.6172,-19070.3516,100557.4063,-19099.5879,-19035.7949,-19056.2031,36457.8828,-19066.6191,-19084.4336,-19162.6641,-19088.5898,79246.0469,7.299896
22388.5801,-19155.2207,-19201.6445,-19261.8613,70130.1797,-19278.1777,84039.9375,-19222.0527,-19136.6016,-19171.8281,-19090.6914,-19227.5957,100583.9219,-19296.5059,-19232.4902,-19252.8984,36628.5625,-19230.2559,-19261.8828,-19359.3145,-19285.2637,79398.7813,7.303894
13151.5420,-5330.4663,-5400.2036,-5695.8950,70844.5469,-9704.7246,84596.9922,-9751.4180,-5716.7715,-6411.7319,-4033.0144,-5823.4341,100983.0547,-9814.9639,-9765.4541,-9779.5811,37215.1406,-6213.7178,-6620.3853,-9723.9922,-9811.0518,79654.3750,7.307892
7737.8608,6093.2192,5979.0913,5507.7827,70963.5000,-3284.3428,84758.8203,-4080.0203,4992.6421,4320.1001,7356.8975,5370.9678,101192.6719,-4137.5313,-4096.9404,-4106.0376,37387.1797,4412.4800,4095.0183,-2708.9197,-4137.7549,79664.4297,7.311890
12916.3799,-4287.2656,-4201.5688,-4945.3682,70381.3047,-8949.2803,84339.5234,-9120.7852,-5382.0986,-5806.2676,-2865.8511,-4978.2920,100948.1406,-9183.5938,-9135.2920,-9148.9268,36938.0234,-5964.2944,-6098.2041,-8798.1602,-9180.5098,79429.3828,7.315887
22440.7266,-18585.9434,-18617.4160,-18718.1543,69812.3438,-18756.0859,83850.5781,-18700.0723,-18617.9297,-18643.5000,-18474.0957,-18679.5977,100555.9141,-18773.8770,-18710.5996,-18730.7383,36427.6211,-18716.3887,-18738.2266,-18837.2891,-18763.1484,79240.5078,7.319885
23288.2363,-19753.2188,-19799.0176,-19855.8145,70007.0703,-19824.3867,83940.9453,-19768.1953,-19732.0977,-19746.3789,-19729.5703,-19817.1445,100551.3516,-19843.3867,-19778.2754,-19799.0625,36518.6602,-19813.4805,-19832.2773,-19905.8145,-19831.4961,79333.3594,7.323883
14135.4219,-7228.9116,-7241.1826,-7710.7256,70635.0859,-10922.9844,84443.0313,-10870.5693,-7808.8276,-8569.9043,-5902.2461,-7848.1890,100938.8906,-10935.2549,-10884.0029,-10899.0898,37058.5000,-8434.5869,-8842.8867,-11003.8750,-10930.5391,79549.5391,7.327881
8198.2617,5155.0723,5147.6289,4463.4419,70760.1406,-5138.7104,84606.9141,-5090.1177,3891.1704,3103.1150,6737.3296,4301.6377,101154.3125,-5148.5898,-5105.9204,-5116.1128,37256.4023,3214.3149,2816.7891,-5222.5967,-5147.5396,79567.8516,7.331879
12567.4023,-5175.9932,-5039.9829,-5838.7671,70290.7813,-9495.6689,84267.0547,-9443.9023,-6236.6953,-6483.2129,-3397.4651,-5862.2144,100950.0391,-9507.1357,-9458.2295,-9472.1553,36890.6602,-6593.8091,-6677.3823,-9577.2529,-9503.6934,79386.5313,7.335876
21422.0684,-18052.0723,-18085.3770,-18173.5547,69878.6797,-18164.5020,83885.2656,-18108.5996,-18063.0254,-18074.5801,-17941.7676,-18133.5000,100604.4844,-18181.7129,-18119.3066,-18139.1543,36467.4297,-18142.8887,-18162.2676,-18245.4375,-18171.5430,79261.8984,7.339874
22054.4199,-18416.0488,-18460.0137,-18522.8223,70167.4453,-18538.4473,84035.2031,-18482.5684,-18396.9160,-18433.3945,-18344.8145,-18488.7148,100612.6406,-18556.1055,-18493.0273,-18513.1895,36612.0430,-18490.1680,-18523.0918,-18619.5391,-18545.5762,79399.0234,7.343872
13334.7148,-5120.0918,-5140.0293,-5475.9312,70794.5000,-9622.5596,84534.8047,-9571.0391,-5491.3540,-6196.6631,-3762.4019,-5611.9419,100987.4141,-9634.4063,-9585.0986,-9599.1797,37139.5664,-5985.5288,-6402.0313,-9704.3223,-9630.5615,79614.3594,7.347870
13334.7148,-5120.0918,-5140.0293,-5475.9312,70794.5000,-9622.5596,84534.8047,-9571.0391,-5491.3540,-6196.6631,-3762.4019,-5611.9419,100987.4141,-9634.4063,-9585.0986,-9599.1797,37139.5664,-5985.5288,-6402.0313,-9704.3223,-9630.5615,79614.3594,7.351868
8243.0098,5625.2188,5618.5132,5069.8003,70832.0703,-4507.1172,84640.6406,-4458.9717,4571.7588,3994.3459,7074.3940,4926.0562,101174.9219,-4516.8179,-4475.3555,-4484.8774,37261.6523,4084.6023,3793.6943,-4592.3667,-4516.3037,79586.3594,7.355865
13316.4531,-5745.9629,-5570.8594,-6284.2373,70207.5000,-9760.0449,84192.7813,-9708.1445,-6613.3223,-6818.1089,-4105.5459,-6311.3501,100921.1172,-9771.6455,-9722.2705,-9736.4199,36801.8125,-6940.1270,-7017.1733,-9841.6738,-9767.9131,79336.7578,7.359863
22414.4629,-19026.6543,-19059.3320,-19138.7480,69678.1172,-19124.8008,83732.2656,-19068.6309,-19024.3965,-19034.3652,-18943.1035,-19098.8945,100552.0234,-19142.9277,-19079.0469,-19099.4316,36320.0195,-19104.0137,-19122.0508,-19205.7578,-19131.8418,79161.8047,7.363861
22737.1777,-19555.0273,-19599.9531,-19659.6328,69958.7891,-19655.3633,83884.1484,-19599.1934,-19536.3398,-19564.3027,-19514.2344,-19625.0762,100579.1328,-19674.0039,-19609.3633,-19630.0156,36467.9219,-19625.1211,-19652.4121,-19736.5664,-19662.5156,79292.4297,7.367859
13288.1338,-6071.4263,-6097.2427,-6440.1406,70658.7109,-10228.5830,84436.2813,-10195.6133,-6499.0825,-7227.7046,-4859.5820,-6602.1685,100977.4922,-10259.4727,-10209.4043,-10223.9336,37056.3086,-6985.0542,-7433.3628,-10248.9893,-10255.4941,79546.9922,7.371857
7475.6299,5971.2905,5894.1323,5439.5425,70828.1797,-4036.5461,84633.0703,-4236.2144,4884.1021,4157.9160,7214.7627,5248.3906,101197.4531,-4293.7476,-4252.7993,-4262.1646,37264.9609,4321.9331,3932.1411,-3316.7976,-4293.8594,79583.0703,7.375854
12230.4043,-3570.6687,-3473.2598,-4139.9229,70345.9219,-8700.3271,84279.9297,-8738.7939,-4660.9868,-5143.9185,-2175.4729,-4238.0469,100981.5547,-8801.1553,-8753.2559,-8766.6895,36869.0664,-5290.8364,-5496.9419,-8463.5771,-8798.2275,79385.4141,7.379852
12230.4043,-3570.6687,-3473.2598,-4139.9229,70345.9219,-8700.3271,84279.9297,-8738.7939,-4660.9868,-5143.9185,-2175.4729,-4238.0469,100981.5547,-8801.1553,-8753.2559,-8766.6895,36869.0664,-5290.8364,-5496.9419,-8463.5771,-8798.2275,79385.4141,7.383850
21507.2715,-17640.4434,-17668.1367,-17772.6758,69859.1250,-17846.8848,83843.1328,-17791.0273,-17683.2246,-17716.3281,-17509.9980,-17739.4160,100612.8906,-17863.7148,-17801.8223,-17821.4707,36402.7891,-17789.7969,-17817.4023,-17927.4844,-17853.8359,79224.7500,7.387848
22465.8262,-18638.2480,-18681.4766,-18742.5625,70061.6328,-18727.0508,83937.9688,-18670.9922,-18618.8457,-18643.8809,-18593.9453,-18706.7109,100603.5469,-18744.6641,-18681.2969,-18701.5703,36500.3516,-18705.3027,-18730.8945,-18807.7402,-18733.9121,79319.8594,7.391846
13833.1367,-6130.2339,-6101.6016,-6524.0938,70629.9688,-10205.0459,84403.5391,-10153.1455,-6589.4951,-7425.1821,-4780.3003,-6692.5366,100965.7578,-10217.0039,-10166.5791,-10181.1523,36995.8906,-7166.7290,-7668.0786,-10286.1162,-10212.6680,79507.2500,7.395844
8458.9951,5064.1226,5114.5034,4522.7861,70666.4219,-5069.6885,84510.6484,-5021.3418,4012.5181,3313.1765,6665.6475,4356.9360,101153.2188,-5079.8140,-5036.8315,-5046.9121,37131.3633,3494.7844,3105.0818,-5153.7759,-5078.5620,79484.8984,7.399841
13032.7207,-6198.2056,-6039.7319,-6646.8052,70116.9766,-9885.8408,84114.2344,-9833.8057,-6914.7803,-7084.4297,-4482.3071,-6658.6069,100928.2891,-9897.5088,-9847.8652,-9862.1709,36725.2344,-7162.7949,-7229.6938,-9967.0674,-9893.6865,79270.4141,7.403839
21657.0059,-18547.4766,-18584.1563,-18651.9258,69691.4609,-18625.0371,83723.2813,-18568.9570,-18532.5684,-18540.6816,-18476.4434,-18610.9336,100595.1641,-18642.6289,-18579.5293,-18599.6230,36304.5977,-18608.4980,-18626.7813,-18705.9512,-18632.0996,79135.5859,7.407837
21792.9941,-18541.1504,-18584.6250,-18647.6582,70029.3984,-18681.8340,83910.7500,-18625.9316,-18522.1523,-18562.8105,-18441.1270,-18613.7715,100628.8438,-18699.6250,-18636.3691,-18656.6211,36486.9414,-18616.0977,-18650.6074,-18762.8809,-18689.0313,79287.5391,7.411835
12642.9512,-4721.6719,-4755.1323,-5049.8398,70723.1094,-9079.7256,84458.7891,-9242.1553,-5078.6069,-5762.4585,-3250.3013,-5166.7173,101010.9688,-9304.7178,-9256.5273,-9270.2520,37061.2695,-5511.1128,-5877.9272,-9065.9785,-9301.7227,79534.7656,7.415833
7419.4155,6204.0171,6107.7256,5699.4487,70833.7734,-1828.9314,84618.0703,-3760.4573,5177.3569,4517.3770,7438.9507,5588.4053,101208.4688,-3814.5261,-3777.9365,-3786.6313,37215.5625,4668.4746,4404.6567,-1267.9027,-3818.4602,79542.1406,7.419830
12611.7480,-3863.8118,-3764.0112,-4410.4683,70257.2500,-8235.9697,84199.4688,-8815.6621,-4867.8745,-5340.0327,-2552.7703,-4418.1128,100966.4063,-8877.4863,-8830.3467,-8843.6689,36761.7773,-5459.1006,-5582.6611,-8051.7910,-8875.2959,79307.2969,7.423828
21974.3125,-18097.5137,-18126.0117,-18226.2383,69704.3828,-18289.7383,83717.0000,-18233.7480,-18131.2422,-18162.3789,-17988.0352,-18186.0723,100591.2500,-18306.9043,-18244.3203,-18264.1914,36262.6406,-18234.6426,-18257.4629,-18370.2715,-18296.4883,79116.9063,7.427826
22687.7793,-19139.2617,-19183.1152,-19243.8008,69903.0469,-19223.6172,83810.7891,-19167.5137,-19120.5078,-19142.9043,-19103.4980,-19205.6680,100594.8906,-19241.6777,-19177.6172,-19197.9805,36363.7852,-19206.5410,-19228.5566,-19304.3066,-19230.3008,79206.3516,7.431824
22687.7793,-19139.2617,-19183.1152,-19243.8008,69903.0469,-19223.6172,83810.7891,-19167.5137,-19120.5078,-19142.9043,-19103.4980,-19205.6680,100594.8906,-19241.6777,-19177.6172,-19197.9805,36363.7852,-19206.5410,-19228.5566,-19304.3066,-19230.3008,79206.3516,7.435822
13634.9209,-6476.7085,-6461.3750,-6903.8052,70510.9453,-10420.9639,84304.0938,-10369.0410,-6991.2007,-7857.4648,-5175.9707,-7008.0986,100964.9297,-10433.0566,-10382.5859,-10397.3379,36893.2500,-7623.3306,-8012.2285,-10502.1230,-10428.7422,79417.0859,7.439819
7895.1948,5415.4697,5415.0005,4797.8242,70626.1641,-4834.1680,84466.0781,-4785.8882,4205.8828,3366.0386,6868.9365,4707.6348,101167.4141,-4844.0698,-4801.9814,-4811.8608,37076.2227,3554.1509,3252.0447,-4918.7021,-4843.2427,79434.7031,7.443817
12272.4258,-4670.5757,-4519.5898,-5333.4614,70164.9375,-9200.0000,84129.4141,-9148.3232,-5832.6426,-6189.5776,-3012.1658,-5297.0952,100967.3203,-9211.2207,-9162.8066,-9176.4639,36709.2969,-6278.1577,-6329.1646,-9281.5391,-9208.0020,79254.4531,7.447815
20933.7715,-17543.2129,-17573.3203,-17668.5625,69769.0469,-17675.3574,83753.2344,-17619.6563,-17565.8320,-17583.0000,-17427.6328,-17625.6914,100640.0000,-17691.9863,-17630.5195,-17650.0547,36302.1367,-17650.8359,-17670.1719,-17755.9355,-17682.4863,79130.6484,7.451813
21425.3535,-17765.9473,-17807.3438,-17874.0645,70066.3672,-17908.6426,83909.2500,-17853.1426,-17746.7695,-17790.5137,-17652.3125,-17838.7930,100659.8672,-17925.7188,-17863.7598,-17883.5410,36459.4727,-17843.0176,-17877.9746,-17989.4219,-17915.8828,79265.3594,7.455811
12826.0117,-4474.9531,-4474.6626,-4815.3257,70677.9141,-9111.2637,84404.1875,-9061.7324,-4819.3711,-5538.4268,-2915.0920,-4903.3467,101018.2109,-9124.4736,-9076.0146,-9089.6494,36978.2539,-5296.6255,-5649.8501,-9146.2891,-9121.0986,79476.0313,7.459808
7934.8242,5776.4727,5756.0210,5228.2739,70696.1484,-4186.2358,84501.1719,-4149.4673,4710.5181,4097.5664,7194.6465,5171.3218,101185.0234,-4206.9780,-4166.2085,-4175.3506,37082.6836,4236.0132,4037.5520,-3943.9875,-4207.0454,79446.6797,7.463806
21955.8711,-18551.9688,-18583.1953,-18669.6074,69569.8672,-18664.5332,83604.1719,-18608.4746,-18560.2402,-18573.2930,-18459.9473,-18626.4238,100596.3047,-18682.0566,-18618.8906,-18638.8965,36148.2695,-18641.7344,-18659.5938,-18745.1113,-18671.2617,79026.2188,7.467804
22098.0742,-18896.8125,-18940.5996,-19002.8262,69857.1563,-19014.2031,83756.6328,-18958.2793,-18878.5059,-18913.5977,-18835.3008,-18966.0352,100630.8125,-19032.1973,-18968.4941,-18988.8125,36306.3164,-18969.9023,-18999.3613,-19094.9824,-19021.1543,79154.7188,7.471802
12756.3857,-5379.4390,-5404.4058,-5733.3115,70541.4766,-9616.1670,84301.1875,-9661.9434,-5774.9976,-6512.2925,-4088.7822,-5812.1016,101006.8125,-9725.3555,-9675.9355,-9690.0400,36886.6133,-6239.3999,-6589.1377,-9601.9512,-9721.4883,79403.7188,7.475800
7171.7358,6107.9268,5993.5977,5613.4395,70697.8516,-2805.3896,84495.3125,-3930.1965,5111.0391,4385.8813,7296.5928,5543.4785,101208.8750,-3987.4170,-3947.2510,-3956.0574,37080.2695,4591.2271,4343.9048,-1820.8848,-3987.9087,79438.2344,7.479797
11954.3379,-3210.5151,-3158.6814,-3703.4604,70218.5156,-8085.8550,84142.8906,-8461.0742,-4126.4224,-4674.4648,-1916.1479,-3673.9114,101000.3984,-8523.0332,-8475.8262,-8488.7676,36684.9102,-4736.3569,-4851.0435,-7728.0708,-8520.3506,79246.5625,7.483795
21823.9512,-17975.9883,-18018.1211,-18083.8125,69972.0859,-18084.0801,83817.7422,-18028.4922,-17958.7773,-17992.4375,-17911.9727,-18046.1055,100666.3516,-18101.1133,-18038.9297,-18058.7109,36341.2305,-18050.3965,-18079.3652,-18164.6367,-18090.8535,79187.9375,7.487793
13293.2080,-5350.2700,-5332.6118,-5751.6626,70523.4844,-9663.5303,84275.7734,-9612.0547,-5784.7207,-6605.1416,-3975.5259,-5823.4561,101003.0391,-9675.1982,-9625.7783,-9639.9043,36827.8711,-6352.1421,-6745.7114,-9744.7344,-9671.2861,79372.7813,7.491791
8143.8354,5266.2720,5270.2729,4692.4355,70533.0313,-4752.9863,84366.4531,-4704.7290,4183.1514,3517.0693,6794.4385,4656.7397,101158.4063,-4762.8438,-4720.6436,-4730.5229,36942.4922,3694.1174,3469.9070,-4837.5210,-4762.1060,79347.4375,7.495789
12787.5664,-5880.2075,-5740.6206,-6418.3257,69988.3359,-9639.3232,83969.8906,-9587.4229,-6728.8135,-6924.5254,-4145.1084,-6346.3755,100943.0469,-9650.8350,-9601.6162,-9615.7422,36526.0781,-6993.5698,-7007.3608,-9720.7510,-9647.3252,79131.3672,7.499786
21207.5137,-18089.4004,-18125.1621,-18198.7227,69585.4688,-18173.8223,83586.3125,-18117.9219,-18081.2637,-18089.8926,-18009.2910,-18155.3594,100641.8516,-18190.8770,-18128.5605,-18148.4082,36119.6797,-18157.1270,-18175.2305,-18254.5352,-18180.8867,79000.1797,7.503784
21137.2617,-17853.7676,-17894.9629,-17964.5215,69935.7891,-18024.4023,83779.5469,-17968.7676,-17837.5176,-17888.8164,-17705.5098,-17929.1387,100688.1250,-18041.4336,-17979.3184,-17999.0547,36321.8750,-17936.8047,-17973.0820,-18105.1133,-18031.5313,79159.6172,7.507782
12103.8271,-3980.6667,-4012.3838,-4335.3887,70618.0547,-8391.5371,84325.2578,-8701.4668,-4353.6055,-5080.3057,-2346.7095,-4401.5503,101046.0625,-8686.3789,-8714.4756,-8729.0488,36890.5234,-4804.1943,-5114.8164,-8329.6680,-8760.8330,79406.0469,7.511780
7141.8960,6322.2129,6176.0996,5819.7456,70709.9844,-1022.8605,84475.5078,-3480.8147,5314.5518,4655.5552,7498.5405,5789.1685,101215.8672,-2854.4741,-3488.5930,-3506.0723,37026.2656,4813.7832,4650.0122,-527.5682,-3539.1975,79411.5625,7.515778
12396.5225,-3579.4082,-3533.8330,-4081.4060,70131.3438,-7876.0171,84051.1641,-8598.3135,-4518.4272,-5015.8208,-2372.8835,-4005.7678,100982.0938,-8476.5859,-8611.1436,-8626.0293,36570.5391,-5118.1021,-5156.3687,-7776.6636,-8657.9258,79179.2891,7.519775
22065.2383,-18499.4434,-18542.7832,-18606.8438,69818.3984,-18598.1035,83679.8750,-18542.3145,-18483.8418,-18512.2051,-18447.9668,-18567.4824,100662.7578,-18615.6719,-18552.6406,-18572.7344,36205.4883,-18572.7129,-18597.3438,-18678.9492,-18605.3008,79090.0156,7.523773
13125.1670,-5767.3311,-5768.3369,-6196.2832,70412.1016,-9907.9023,84169.3984,-9856.2695,-6272.0781,-7096.0303,-4445.6724,-6226.9277,101007.8906,-9919.7490,-9869.9268,-9884.3877,36725.2109,-6838.1582,-7157.3857,-9989.3076,-9915.9043,79303.0469,7.527771
7633.6348,5582.8398,5518.1313,4955.5156,70504.6406,-4569.2104,84319.1328,-4520.9531,4351.9067,3586.0244,6917.7974,4971.3184,101179.8203,-4578.7993,-4537.0688,-4546.8589,36885.5625,3766.3806,3592.7747,-4654.1694,-4578.3745,79316.6797,7.531769
12080.8047,-4398.4653,-4313.5962,-5102.9927,70043.0313,-9004.9814,83977.0859,-8953.4160,-5646.8105,-6030.2100,-2912.2087,-4964.7471,100986.5156,-9015.8438,-8967.6982,-8981.3555,36515.9766,-6124.7803,-6113.1797,-9086.5430,-9012.8262,79132.5234,7.535767
20534.8828,-17130.6895,-17164.1719,-17259.8828,69666.8984,-17273.0020,83604.2422,-17217.4805,-17160.0820,-17179.3496,-17024.9648,-17211.3340,100691.7422,-17289.1406,-17228.2539,-17247.5449,36131.8398,-17247.1191,-17265.2246,-17353.3359,-17279.8652,79011.2031,7.539764
20809.3398,-17118.2168,-17157.6895,-17229.6855,69979.3516,-17288.2461,83768.1016,-17233.0156,-17103.2637,-17151.6113,-16955.9434,-17192.1348,100727.9766,-17304.7637,-17243.6777,-17263.0781,36304.8633,-17203.3770,-17238.0664,-17368.8027,-17295.4219,79152.1484,7.543762
12317.3086,-3788.7100,-3794.4990,-4145.3096,70578.7344,-8558.5273,84261.6016,-8548.2236,-4177.3398,-4846.8862,-2084.5459,-4181.9219,101061.2422,-8610.4277,-8562.6396,-8575.8945,36806.9063,-4643.5522,-4911.4380,-8442.9014,-8607.4775,79364.8750,7.547760
7687.2788,5870.9536,5793.3706,5302.6382,70573.1953,-3660.7014,84346.3828,-3896.8923,4734.7251,4182.4136,7209.7114,5330.8906,101196.7813,-3954.1128,-3913.8350,-3922.8203,36887.0391,4280.0908,4184.2017,-2343.7144,-3954.6716,79333.3828,7.551758
12866.0439,-5127.1323,-5010.9033,-5748.4663,69959.0156,-9246.1338,83896.8906,-9251.8789,-6203.8828,-6477.4683,-3634.8853,-5604.6328,100958.8281,-9314.7314,-9266.1611,-9279.9521,36428.5352,-6585.3154,-6562.4722,-8971.5654,-9311.6025,79085.1875,7.555756
21565.9902,-18153.1250,-18186.5410,-18272.8184,69477.5547,-18270.1367,83454.2813,-18214.2344,-18165.6191,-18178.8750,-18066.0430,-18225.2090,100653.9922,-18287.2129,-18224.7402,-18244.5879,35990.8242,-18247.6504,-18264.7051,-18350.7363,-18277.0879,78917.7266,7.559753
21490.8438,-18264.3242,-18306.9727,-18372.2832,69776.3516,-18402.5938,83612.7344,-18346.8477,-18250.2891,-18288.8887,-18182.0488,-18333.9512,100704.9297,-18419.9375,-18357.1289,-18377.1563,36163.5117,-18342.6016,-18374.0938,-18483.1934,-18409.5898,79052.7500,7.563751
6948.0840,6173.0376,6015.9272,5682.4614,70577.0625,-1884.6320,84332.6406,-3701.0688,5115.7329,4504.7930,7298.2021,5674.1689,101224.8125,-3755.2717,-3718.3691,-3727.0190,36881.2500,4668.0054,4506.4692,-1148.3655,-3759.1387,79331.4375,7.567749
11789.9189,-3127.1653,-3104.7466,-3613.0701,70098.4453,-7653.0137,83972.5938,-8291.2676,-4091.9561,-4552.4692,-1876.6077,-3525.4958,101019.9375,-8352.4219,-8306.0869,-8319.0059,36490.4492,-4621.9160,-4661.2324,-7450.6855,-8350.7451,79136.2344,7.571747
20652.6973,-16759.9863,-16792.5078,-16888.2402,69655.7891,-16985.7383,83550.4844,-16930.2832,-16800.1523,-16836.5410,-16636.5371,-16840.0039,100714.2500,-17001.5625,-16941.1914,-16960.2793,36067.3320,-16904.5352,-16925.3223,-17065.8691,-16992.5547,78982.5938,7.575745
21229.7539,-17356.1953,-17397.1660,-17464.8926,69889.3672,-17483.8477,83663.9141,-17428.3242,-17343.3223,-17378.7930,-17273.7402,-17426.2461,100741.1641,-17500.1641,-17439.1211,-17458.4785,36187.1172,-17434.7402,-17466.1211,-17564.2461,-17490.7090,79085.4297,7.579742
12810.2988,-4680.1646,-4669.9722,-5048.0967,70418.7188,-9174.3623,84111.6875,-9123.1328,-5155.3403,-5820.9976,-3296.8599,-5084.7090,101048.7656,-9185.8965,-9137.3926,-9150.9600,36647.0938,-5606.8901,-5931.2813,-9255.9463,-9182.4092,79270.5469,7.583740
7913.6123,5379.0366,5340.1445,4814.0513,70413.5781,-4517.0415,84195.9141,-4468.9404,4189.2979,3688.2388,6810.8223,4827.4624,101177.3594,-4526.8315,-4485.3467,-4494.7568,36740.6797,3805.3174,3655.0242,-4602.1123,-4526.3174,79242.3594,7.587738
12607.5459,-5670.9277,-5558.2974,-6241.9927,69882.3203,-9454.5645,83804.9141,-9402.9092,-6665.8936,-6813.0127,-4013.0767,-6130.3457,100973.4688,-9465.9854,-9417.1699,-9430.9609,36340.5820,-6905.8169,-6905.3032,-9536.1260,-9462.5664,79027.0703,7.591736
20808.7129,-17681.8379,-17718.0488,-17793.3516,69503.3516,-17770.6191,83430.4063,-17714.8301,-17679.3789,-17687.2031,-17603.4063,-17748.3789,100706.8984,-17787.2500,-17725.6934,-17745.2051,35966.5469,-17754.3691,-17772.5645,-17851.1973,-17777.5938,78901.2734,7.595734
20547.0410,-17232.6797,-17270.3867,-17346.8750,69855.7500,-17429.9570,83623.4844,-17374.5020,-17225.5723,-17277.6074,-17041.5508,-17312.2520,100766.7109,-17446.4746,-17385.3418,-17404.7656,36168.3398,-17322.5352,-17362.2539,-17510.4668,-17436.8867,79060.8672,7.599731
11650.5781,-3382.8916,-3401.8013,-3748.4097,70522.7656,-7834.9346,84167.0781,-8244.0605,-3855.4521,-4491.8960,-1656.0630,-3815.7556,101105.6797,-8101.1885,-8220.2783,-8271.3076,36706.2773,-4232.3921,-4542.0308,-7772.8413,-8303.3154,79308.7891,7.603729
6926.6714,6345.0791,6173.3057,5852.5581,70595.8359,-598.2668,84306.6172,-3261.0522,5254.0234,4738.1675,7458.0171,5823.5903,101244.5234,-1650.4304,-3004.1191,-3283.4041,36817.7695,4892.8638,4730.9478,-135.0716,-3319.6587,79310.7344,7.607727
12218.8486,-3505.1780,-3468.9011,-3980.9797,70024.5234,-7657.4170,83882.2500,-8416.6611,-4475.4004,-4837.3867,-2312.4668,-3911.1750,101015.0156,-7993.2964,-8372.8965,-8443.3262,36374.2461,-4894.6743,-4947.3574,-7557.6162,-8476.1611,79076.7578,7.611725
21177.0254,-17282.1230,-17313.7949,-17407.0020,69525.7266,-17486.1934,83424.1719,-17430.7168,-17316.9023,-17344.4395,-17176.8008,-17360.7559,100714.0703,-17502.6660,-17441.4688,-17460.7578,35922.0898,-17412.3203,-17433.0410,-17566.6152,-17493.0996,78893.7891,7.615723
21488.4746,-17900.5508,-17942.3262,-18009.5156,69751.2734,-18017.4941,83537.2031,-17961.9512,-17890.6035,-17921.8301,-17836.7813,-17971.2715,100752.9844,-18034.4824,-17972.5234,-17992.2148,36046.9688,-17977.5977,-18007.4590,-18098.0273,-18024.4688,78994.0313,7.619720
12645.0293,-5082.9878,-5083.3901,-5484.4922,70315.4375,-9423.6963,84012.6953,-9372.3320,-5654.0298,-6342.2178,-3804.7808,-5534.1577,101064.2578,-9435.2969,-9386.4355,-9400.2715,36540.5625,-6054.4390,-6416.2246,-9486.3486,-9431.8545,79202.8672,7.623718
7387.3853,5725.2651,5626.1128,5127.2891,70394.1328,-4318.7368,84156.5703,-4270.6807,4384.6523,3825.0540,6934.2485,5116.2246,101210.6875,-4328.2139,-4287.1094,-4296.4521,36678.3828,3977.7834,3781.9822,-4104.3613,-4328.1245,79209.4609,7.627716
11883.7295,-4118.7783,-4057.4897,-4823.5508,69942.9844,-8803.8154,83818.8359,-8752.5186,-5517.5503,-5772.5391,-2722.5095,-4719.4814,101028.9453,-8814.7002,-8766.8457,-8780.3457,36316.4219,-5926.3188,-5943.2393,-8761.4141,-8811.8174,79025.1250,7.631714
20137.9375,-16719.3730,-16752.7441,-16851.4492,69584.9141,-16872.5938,83454.1250,-16817.3398,-16759.2031,-16774.2461,-16613.4707,-16804.5332,100765.6641,-16888.3730,-16828.1816,-16847.2695,35956.0000,-16844.0957,-16863.4746,-16952.7695,-16879.5000,78908.0000,7.635712
20222.4277,-16488.9707,-16523.4590,-16607.0781,69907.2891,-16697.9141,83629.0703,-16642.8633,-16487.5840,-16540.9824,-16267.7334,-16572.8340,100820.0859,-16713.7617,-16653.8145,-16672.8594,36136.3086,-16583.9648,-16624.9805,-16778.1797,-16704.9102,79052.0391,7.639709
11825.4805,-3065.2510,-3054.6340,-3455.4902,70491.2969,-7873.8262,84120.5859,-8052.5957,-3586.2925,-4204.5640,-1239.0690,-3522.0090,101132.2500,-8111.7607,-8067.3926,-8080.1328,36620.8945,-3943.1604,-4240.4609,-7650.7114,-8111.7158,79263.8203,7.643707
7415.7944,6018.9668,5897.3066,5440.1685,70463.9375,-2351.4929,84193.1641,-3621.2061,4736.4238,4296.5864,7217.3110,5439.9897,101236.6094,-3662.8025,-3638.6626,-3647.1787,36680.9531,4415.2295,4306.5552,-719.7261,-3679.2981,79226.6484,7.647705
12649.0977,-4788.2129,-4715.0107,-5427.7188,69856.3047,-8825.6084,83742.5547,-9031.1777,-6034.8589,-6240.7632,-3491.6553,-5312.8755,101004.1328,-9091.0352,-9045.6162,-9059.1172,36223.7070,-6344.2964,-6329.9912,-8355.1045,-9090.8789,78975.0547,7.651703
21164.3750,-17735.7285,-17770.3066,-17858.5742,69398.8594,-17864.8984,83313.1719,-17809.3105,-17759.0410,-17770.7754,-17657.8555,-17812.1270,100731.8438,-17881.7520,-17819.8379,-17839.5742,35805.5273,-17839.6426,-17856.8965,-17945.5215,-17871.9844,78809.5625,7.655701
20892.1309,-17636.4648,-17676.6758,-17748.0898,69701.8125,-17800.0801,83476.9922,-17744.6250,-17631.0098,-17668.5176,-17524.5039,-17711.5664,100794.2266,-17816.9316,-17755.1074,-17774.8887,35984.3867,-17718.6523,-17752.7832,-17880.6582,-17807.1191,78946.3359,7.659698
11751.6523,-4025.9067,-4054.6733,-4399.8516,70353.4297,-8422.1816,84012.4922,-8649.0293,-4572.3174,-5111.7769,-2635.6506,-4453.2720,101123.4453,-8610.7188,-8663.5137,-8676.8574,36522.4375,-4863.6274,-5144.3433,-8244.9102,-8708.3730,79196.4063,7.663696
6661.3560,6273.1284,6083.6084,5767.7334,70477.6172,-1148.7678,84187.6406,-3410.7197,5114.6377,4674.9341,7320.3750,5736.6421,101270.8516,-2326.0789,-3428.3552,-3436.8264,36667.2070,4827.9097,4681.6172,-331.2975,-3469.1919,79224.0156,7.667694
11569.3291,-2914.1755,-2902.0164,-3406.9199,70000.2500,-7324.4204,83825.0078,-8067.8843,-3937.9749,-4212.3872,-1656.8677,-3348.2688,101072.5703,-7725.7012,-8082.6812,-8095.5557,36280.2109,-4306.1978,-4352.9575,-7187.8516,-8127.3623,79028.6797,7.671692
20248.3105,-16343.9307,-16375.5801,-16473.9941,69573.8906,-16578.3320,83410.3594,-16523.1680,-16390.6680,-16415.2773,-16208.7246,-16428.1973,100794.2031,-16594.0020,-16534.1875,-16553.2324,35877.3867,-16485.7070,-16507.5234,-16658.5527,-16585.4629,78878.8750,7.675690
20635.0859,-16728.8945,-16766.4238,-16840.8320,69818.8203,-16886.2500,83533.8984,-16831.1758,-16724.8496,-16763.7402,-16617.2031,-16804.4648,100835.9766,-16902.2988,-16842.0156,-16861.3281,36004.3672,-16811.8633,-16848.5430,-16966.6953,-16893.4707,78985.9688,7.679688
12290.7324,-3930.1519,-3907.3752,-4302.5093,70334.2734,-8651.6670,83977.4219,-8600.7725,-4496.5898,-5072.4824,-2514.7275,-4365.9438,101124.4531,-8662.8203,-8615.0322,-8628.4209,36448.3398,-4793.4209,-5110.8828,-8673.0127,-8659.7588,79171.9063,7.683685
7600.3081,5591.9370,5517.3716,4999.1016,70311.8594,-4200.3843,84050.2266,-4152.4399,4234.6050,3859.1851,6853.8940,4980.0581,101229.1484,-4209.7275,-4168.8687,-4178.1445,36521.5430,4006.6172,3878.9216,-3828.8091,-4209.6826,79137.4219,7.687683
12355.1719,-5244.3228,-5157.5757,-5891.1372,69781.8750,-9199.1953,83656.5859,-9147.5850,-6477.4683,-6574.9219,-3778.0034,-5807.2065,101029.7031,-9210.3037,-9161.8906,-9175.6816,36127.4141,-6655.1646,-6651.7446,-9171.0322,-9207.1299,78920.6328,7.691681
20398.3809,-17255.7031,-17291.6895,-17372.8027,69416.4219,-17357.2910,83288.5000,-17301.7910,-17265.3359,-17272.5996,-17180.8242,-17328.3008,100787.0547,-17373.3848,-17312.5645,-17331.9668,35775.0156,-17339.4766,-17357.9844,-17437.7344,-17364.2656,78799.9063,7.695679
19956.5313,-16597.3535,-16628.8477,-16718.0313,69781.0000,-16836.3613,83493.8438,-16781.1758,-16604.7969,-16659.9395,-16349.7637,-16688.2813,100863.7891,-16852.1875,-16792.0820,-16811.2148,35981.2539,-16698.2949,-16743.2441,-16916.7168,-16843.2910,78965.5625,7.699677
11128.6426,-2679.9963,-2679.1694,-3078.6621,70432.2656,-7211.4771,84031.1094,-7717.4087,-3279.5820,-3856.8381,-874.1096,-3185.4812,101184.4688,-7394.0908,-7526.7036,-7709.8315,36494.3164,-3563.3374,-3876.7534,-7065.5425,-7760.5479,79209.5938,7.703674
6625.6157,6421.7451,6217.2715,5914.8076,70488.1484,-236.4814,84158.6484,-2947.9043,5227.8491,4828.5576,7424.6680,5851.9321,101303.5547,-710.1596,-1419.3804,-2713.6804,36587.5898,5023.3979,4877.1729,366.9262,-2901.0774,79205.8203,7.707672
11995.9346,-3304.1465,-3292.7249,-3774.8071,69917.7266,-7456.4746,83732.1563,-8188.9858,-4324.4590,-4548.8257,-2201.7585,-3743.1794,101076.8672,-7579.6328,-7769.3765,-8154.7656,36150.0781,-4553.6089,-4595.6748,-7325.2026,-8227.6992,78971.9766,7.711670
20806.7012,-16900.8008,-16933.8828,-17025.9707,69434.4375,-17112.6738,83283.1797,-17057.2188,-16940.8105,-16960.5039,-16800.6211,-16982.7871,100798.7891,-17128.5430,-17068.0605,-17087.2813,35721.2813,-17025.0781,-17045.8203,-17192.9395,-17119.7363,78794.7266,7.715668
20930.0391,-17315.4258,-17355.9941,-17426.6270,69666.8125,-17455.7949,83403.9453,-17400.4531,-17312.4980,-17345.2656,-17238.5371,-17390.7969,100848.0703,-17472.1797,-17411.0703,-17430.6055,35849.7617,-17395.8477,-17428.9727,-17536.2402,-17462.9922,78900.5391,7.719666
12146.8320,-4393.2798,-4400.3208,-4785.1953,70223.4141,-8921.8330,83880.5313,-8870.7588,-5025.0298,-5576.0000,-3165.5435,-4866.0415,101147.6953,-8933.1201,-8884.9746,-8898.4307,36319.4805,-5279.9961,-5589.8584,-8768.6787,-8929.9463,79109.7500,7.723663
7093.7505,5865.1646,5722.0688,5312.6519,70291.8984,-4021.6821,84019.7109,-3973.7825,4472.6509,4075.7288,6907.9404,5252.9727,101280.1797,-4030.9358,-3990.5686,-3999.5093,36440.6289,4266.1431,4115.5146,-1868.1364,-4031.4053,79115.4922,7.727661
11675.1650,-3866.2705,-3851.9878,-4467.4204,69834.5391,-8592.5918,83674.0391,-8541.3838,-5278.0962,-5442.3364,-2697.9001,-4428.1934,101097.0000,-8603.2305,-8555.8672,-8569.0996,36082.3320,-5501.6133,-5523.4956,-7937.2607,-8600.8164,78930.2422,7.731659
11675.1650,-3866.2705,-3851.9878,-4467.4204,69834.5391,-8592.5918,83674.0391,-8541.3838,-5278.0962,-5442.3364,-2697.9001,-4428.1934,101097.0000,-8603.2305,-8555.8672,-8569.0996,36082.3320,-5501.6133,-5523.4956,-7937.2607,-8600.8164,78930.2422,7.735657
19804.3828,-16374.0381,-16410.1133,-16502.5605,69485.9141,-16537.2051,83314.4219,-16481.9961,-16418.5859,-16430.9453,-16286.7324,-16459.0195,100851.1797,-16552.5605,-16493.0605,-16511.9258,35737.8906,-16496.7930,-16516.7988,-16617.4258,-16544.3359,78816.0234,7.739655
19804.3828,-16374.0381,-16410.1133,-16502.5605,69485.9141,-16537.2051,83314.4219,-16481.9961,-16418.5859,-16430.9453,-16286.7324,-16459.0195,100851.1797,-16552.5605,-16493.0605,-16511.9258,35737.8906,-16496.7930,-16516.7988,-16617.4258,-16544.3359,78816.0234,7.743652
19725.5918,-15956.8652,-15984.8721,-16080.0459,69821.5078,-16199.6270,83503.7031,-16144.9326,-15966.2080,-16023.4287,-15685.8281,-16051.4580,100918.7969,-16214.9834,-16155.9297,-16174.5713,35922.1563,-16057.0684,-16104.1855,-16279.9814,-16206.8916,78963.5234,7.747650
19725.5918,-15956.8652,-15984.8721,-16080.0459,69821.5078,-16199.6270,83503.7031,-16144.9326,-15966.2080,-16023.4287,-15685.8281,-16051.4580,100918.7969,-16214.9834,-16155.9297,-16174.5713,35922.1563,-16057.0684,-16104.1855,-16279.9814,-16206.8916,78963.5234,7.751648
11379.3623,-2499.2825,-2466.4478,-2911.3369,70394.8750,-7207.2305,83993.4531,-7605.4712,-3104.9702,-3685.5566,-625.4912,-3029.9353,101215.4688,-7511.0127,-7617.6978,-7632.5396,36391.9453,-3352.8511,-3673.3750,-6990.7759,-7664.5024,79175.2422,7.755646
11379.3623,-2499.2825,-2466.4478,-2911.3369,70394.8750,-7207.2305,83993.4531,-7605.4712,-3104.9702,-3685.5566,-625.4912,-3029.9353,101215.4688,-7511.0127,-7617.6978,-7632.5396,36391.9453,-3352.8511,-3673.3750,-6990.7759,-7664.5024,79175.2422,7.759644
11379.3623,-2499.2825,-2466.4478,-2911.3369,70394.8750,-7207.2305,83993.4531,-7605.4712,-3104.9702,-3685.5566,-625.4912,-3029.9353,101215.4688,-7511.0127,-7617.6978,-7632.5396,36391.9453,-3352.8511,-3673.3750,-6990.7759,-7664.5024,79175.2422,7.763641
7156.9834,6073.9521,5923.3462,5494.7964,70353.4531,-1111.4851,84056.1016,-3360.6069,4709.0879,4347.3916,7133.6260,5429.8198,101299.3281,-2502.2554,-3362.4175,-3385.3503,36434.7070,4557.3643,4433.5356,-21.4800,-3418.9451,79133.7344,7.767639
7156.9834,6073.9521,5923.3462,5494.7964,70353.4531,-1111.4851,84056.1016,-3360.6069,4709.0879,4347.3916,7133.6260,5429.8198,101299.3281,-2502.2554,-3362.4175,-3385.3503,36434.7070,4557.3643,4433.5356,-21.4800,-3418.9451,79133.7344,7.771637
12486.3320,-4602.0898,-4556.8726,-5234.6890,69750.8984,-8413.3750,83609.0000,-8867.0264,-5929.9399,-6067.1797,-3466.4873,-5195.9312,101076.1719,-8757.5693,-8878.7158,-8894.5635,35977.6797,-6085.8657,-6091.9902,-8069.3594,-8926.5938,78880.9609,7.775635
12486.3320,-4602.0898,-4556.8726,-5234.6890,69750.8984,-8413.3750,83609.0000,-8867.0264,-5929.9399,-6067.1797,-3466.4873,-5195.9312,101076.1719,-8757.5693,-8878.7158,-8894.5635,35977.6797,-6085.8657,-6091.9902,-8069.3594,-8926.5938,78880.9609,7.779633
20896.7344,-17460.3320,-17495.5371,-17584.6523,69300.9766,-17596.3887,83184.1406,-17540.8438,-17489.5469,-17499.3809,-17392.6738,-17541.8047,100818.6328,-17612.7051,-17551.4160,-17570.8848,35572.2188,-17565.3184,-17583.4688,-17676.6973,-17603.3398,78716.8281,7.783630
20896.7344,-17460.3320,-17495.5371,-17584.6523,69300.9766,-17596.3887,83184.1406,-17540.8438,-17489.5469,-17499.3809,-17392.6738,-17541.8047,100818.6328,-17612.7051,-17551.4160,-17570.8848,35572.2188,-17565.3184,-17583.4688,-17676.6973,-17603.3398,78716.8281,7.787628
20457.8574,-17180.7129,-17219.9629,-17295.8691,69604.4922,-17364.6680,83352.5781,-17309.4141,-17181.4277,-17221.9961,-17055.3184,-17262.4746,100883.5000,-17381.0508,-17320.0762,-17339.4102,35759.3906,-17265.3594,-17302.6191,-17445.1328,-17371.7969,78855.6797,7.791626
20457.8574,-17180.7129,-17219.9629,-17295.8691,69604.4922,-17364.6680,83352.5781,-17309.4141,-17181.4277,-17221.9961,-17055.3184,-17262.4746,100883.5000,-17381.0508,-17320.0762,-17339.4102,35759.3906,-17265.3594,-17302.6191,-17445.1328,-17371.7969,78855.6797,7.795624
11372.4551,-3552.0273,-3589.9583,-3949.8884,70253.6797,-7936.0981,83895.4375,-8268.5137,-4151.4341,-4672.0957,-2200.2163,-4041.5081,101205.6563,-8127.4067,-8210.7119,-8295.5146,36288.5703,-4361.1606,-4647.2852,-7734.9775,-8327.7900,79103.0703,7.799622
6461.9116,6287.0762,6058.9097,5758.9937,70372.0313,-741.1614,84071.1250,-3209.6880,5081.4229,4688.4570,7212.7510,5689.2788,101346.7422,-1357.2426,-2561.6663,-3231.1011,36421.2500,4938.5732,4791.8115,77.9182,-3268.4060,79129.9141,7.803619
6461.9116,6287.0762,6058.9097,5758.9937,70372.0313,-741.1614,84071.1250,-3209.6880,5081.4229,4688.4570,7212.7510,5689.2788,101346.7422,-1357.2426,-2561.6663,-3231.1011,36421.2500,4938.5732,4791.8115,77.9182,-3268.4060,79129.9141,7.807617
11444.7412,-2889.1863,-2919.3835,-3391.4749,69885.0078,-7202.7598,83698.5391,-7942.3569,-3926.0166,-4159.1455,-1783.2445,-3370.6428,101141.1016,-7333.3164,-7760.2124,-7968.3296,36024.5078,-4087.5081,-4140.6831,-7045.6050,-8001.8350,78928.6094,7.811615
11444.7412,-2889.1863,-2919.3835,-3391.4749,69885.0078,-7202.7598,83698.5391,-7942.3569,-3926.0166,-4159.1455,-1783.2445,-3370.6428,101141.1016,-7333.3164,-7760.2124,-7968.3296,36024.5078,-4087.5081,-4140.6831,-7045.6050,-8001.8350,78928.6094,7.815613
20039.9922,-16139.0098,-16174.7725,-16269.2979,69468.5078,-16369.5674,83290.7109,-16314.4482,-16185.4561,-16207.4063,-16024.8369,-16226.6729,100875.0547,-16384.7676,-16325.5352,-16344.3770,35628.0313,-16265.2295,-16287.8496,-16449.6992,-16376.6084,78777.5781,7.819611
20289.9746,-16366.8857,-16405.6426,-16483.4043,69723.6953,-16540.3574,83427.3672,-16485.3945,-16366.8633,-16407.7891,-16245.1357,-16447.9785,100924.8984,-16555.9375,-16496.3906,-16515.2344,35768.7578,-16450.3477,-16487.6973,-16620.6895,-16547.4883,78885.4297,7.823608
20289.9746,-16366.8857,-16405.6426,-16483.4043,69723.6953,-16540.3574,83427.3672,-16485.3945,-16366.8633,-16407.7891,-16245.1357,-16447.9785,100924.8984,-16555.9375,-16496.3906,-16515.2344,35768.7578,-16450.3477,-16487.6973,-16620.6895,-16547.4883,78885.4297,7.827606
11962.8545,-3531.5308,-3543.8914,-3946.9155,70231.3672,-8322.0234,83872.5938,-8271.2402,-4125.9976,-4678.5327,-2165.6829,-4017.7705,101202.6641,-8332.9531,-8285.8359,-8298.7998,36213.5781,-4343.8604,-4623.7710,-8113.4819,-8330.3604,79070.5469,7.831604
7437.7437,5605.9961,5450.7188,4955.6274,70198.4922,-4035.8086,83941.8203,-3987.6851,4195.6011,3841.1025,6711.1782,4933.0747,101298.4609,-4044.8608,-4004.6501,-4013.5686,36271.3359,4067.5256,3982.2761,-2112.5974,-4045.3303,79034.3594,7.835602
7437.7437,5605.9961,5450.7188,4955.6274,70198.4922,-4035.8086,83941.8203,-3987.6851,4195.6011,3841.1025,6711.1782,4933.0747,101298.4609,-4044.8608,-4004.6501,-4013.5686,36271.3359,4067.5256,3982.2761,-2112.5974,-4045.3303,79034.3594,7.839600
12301.8633,-5234.0854,-5245.8872,-5930.6777,69678.8984,-9143.8301,83552.0234,-9092.2197,-6506.9053,-6597.4526,-3986.5229,-5849.8091,101102.8359,-9154.8496,-9106.5693,-9120.2041,35867.7969,-6617.0547,-6590.2998,-8717.7607,-9151.8770,78812.1563,7.843597
20266.2148,-17122.9336,-17164.1719,-17241.3965,69351.2031,-17223.4043,83203.8047,-17167.9277,-17132.4102,-17139.5410,-17066.5391,-17197.2520,100874.2891,-17239.3418,-17178.6563,-17197.9902,35536.8789,-17205.1875,-17223.2695,-17303.7598,-17230.4219,78688.8203,7.847595
19667.2090,-16284.8545,-16318.7617,-16413.3105,69733.1016,-16545.3633,83423.7734,-16490.4004,-16295.9414,-16359.0625,-16027.0049,-16383.4033,100957.2813,-16561.0547,-16501.1973,-16520.2637,35768.9570,-16389.9297,-16435.6836,-16625.6289,-16552.4941,78857.9375,7.851593
6493.0474,6388.1284,6119.5723,5834.8110,70433.8750,-20.4071,84089.0000,-2450.7568,5196.8477,4758.4629,7285.1934,5792.9683,101384.1797,-393.7707,-948.7421,-1793.8616,36370.0625,5048.3423,4957.1699,661.0305,-2351.3140,79097.1016,7.855591
20723.2617,-16826.5938,-16866.2012,-16953.6191,69379.9922,-17028.9219,83206.6250,-16973.5117,-16863.2051,-16884.3066,-16742.8633,-16908.6914,100879.5625,-17044.8145,-16984.4414,-17003.5977,35474.5195,-16942.0625,-16958.8711,-17109.1426,-17036.0078,78678.3203,7.859589
11916.8994,-4099.9131,-4159.0781,-4549.5410,70169.7031,-8667.3135,83807.3906,-8640.1113,-4733.4287,-5343.5645,-2967.1716,-4600.4805,101222.4219,-8702.1816,-8654.4834,-8667.8047,36101.9570,-4968.5913,-5213.1421,-8427.4121,-8699.3438,78990.1875,7.863586
11655.6299,-3994.9495,-4074.7451,-4655.5107,69764.9531,-8487.8516,83585.2813,-8520.9092,-5377.6060,-5621.8882,-2975.3748,-4556.8276,101157.2656,-8582.7119,-8535.4824,-8548.6475,35832.8164,-5542.3159,-5475.5513,-7722.6841,-8580.2305,78801.5391,7.867584
19503.7520,-15720.8535,-15756.0127,-15850.4258,69776.7813,-15976.6689,83426.8750,-15921.7949,-15728.6094,-15792.7813,-15446.5967,-15817.0547,100989.0469,-15991.6895,-15932.9482,-15951.5234,35691.6211,-15823.6484,-15867.4355,-16056.6875,-15983.6201,78836.7422,7.871582
7058.0322,5996.1011,5750.8799,5369.8501,70289.3516,-670.9099,83967.0313,-3259.8230,4674.4199,4245.9150,6942.5410,5379.3047,101359.5000,-1491.4425,-3091.6484,-3283.3818,36195.4297,4522.5176,4497.7070,229.7536,-3318.3845,79003.2188,7.875580
12494.3564,-4749.9692,-4819.1475,-5396.8511,69683.3750,-8312.8369,83514.0938,-8873.7314,-5988.7920,-6178.4468,-3781.2222,-5279.8618,101133.8828,-8561.5225,-8858.9121,-8901.1797,35722.9375,-6127.3730,-6040.8271,-8071.1475,-8933.5225,78748.6094,7.879578
20840.8105,-17411.9863,-17455.5723,-17535.3008,69240.3828,-17539.1445,83088.6719,-17483.6465,-17433.6680,-17444.8652,-17363.9961,-17488.6523,100876.9063,-17555.3281,-17494.2188,-17513.7090,35316.1797,-17508.7695,-17523.8340,-17619.6328,-17546.3652,78584.7969,7.883575
20259.9102,-16969.2871,-17013.5215,-17089.1602,69558.4922,-17165.2891,83267.4844,-17109.9688,-16970.0469,-17017.2090,-16853.8633,-17052.1680,100949.9063,-17181.4277,-17120.8320,-17140.0332,35519.2227,-17056.6602,-17091.0605,-17245.7344,-17172.5996,78728.3359,7.887573
11152.8496,-3303.3418,-3407.0315,-3745.7500,70204.4375,-7621.8774,83809.8750,-8047.4326,-3880.0168,-4462.7715,-2082.0872,-3781.9150,101270.7656,-7791.6836,-7929.9292,-8064.3750,36058.9297,-4115.0903,-4330.9409,-7406.1606,-8106.8657,78975.2578,7.891571
11427.9102,-3041.8936,-3153.9651,-3592.3499,69816.5625,-7191.7407,83594.8516,-7924.6318,-4043.6541,-4327.4092,-2063.7141,-3502.8535,101192.0625,-7280.1641,-7548.2285,-7914.5063,35778.7266,-4196.6294,-4154.9434,-7028.1929,-7984.1323,78796.1328,7.895569
20077.2070,-16141.8477,-16184.8975,-16262.3691,69679.3516,-16327.0547,83337.4922,-16272.0020,-16141.2441,-16188.6299,-16024.5020,-16223.6553,100989.3359,-16342.4102,-16283.1338,-16301.8418,35527.6953,-16227.2988,-16261.1621,-16407.2754,-16334.2744,78761.4688,7.899567
11729.5693,-3270.5964,-3345.0725,-3721.8560,70177.2813,-8077.2720,83777.2188,-8037.2622,-3834.5981,-4440.7104,-2010.4946,-3740.9219,101263.2109,-8098.6401,-8051.9253,-8064.6431,35984.8750,-4075.2593,-4273.2734,-7699.3486,-8096.4053,78947.9922,7.903564
7341.8774,5537.9126,5287.1484,4826.8145,70137.2656,-3875.7922,83843.1563,-3891.1479,4133.4634,3740.2961,6539.0918,4881.2856,101357.1797,-3947.9885,-3908.0237,-3916.8301,36036.8906,3977.3140,3997.6987,-1136.9662,-3948.8826,78908.3359,7.907562
12306.0430,-5350.8735,-5472.3325,-6106.8091,69601.2969,-9136.5215,83439.9531,-9095.6846,-6627.7837,-6728.5903,-4223.3843,-5952.6494,101154.5625,-9158.1797,-9110.0117,-9123.5791,35608.8516,-6761.8271,-6666.6758,-8483.5820,-9155.3857,78685.2422,7.911560
20205.5293,-17066.2500,-17112.8750,-17185.0254,69246.0391,-17161.8262,83072.8906,-17106.3262,-17072.9551,-17080.0625,-17022.7969,-17138.5801,100918.4375,-17177.6719,-17117.2109,-17136.4551,35252.3672,-17145.9102,-17162.8750,-17242.1133,-17168.9102,78565.7734,7.915558
19454.2871,-16046.7412,-16085.9688,-16185.8809,69637.7734,-16331.3906,83301.3047,-16276.3613,-16062.3652,-16136.7070,-15793.9434,-16152.3086,101009.4531,-16346.8584,-16287.5811,-16306.2900,35493.0938,-16160.5791,-16203.6064,-16411.4766,-16338.5879,78737.3281,7.919556
10610.2383,-2045.8774,-2149.7014,-2568.4612,70292.1875,-6552.6597,83849.8594,-7071.2871,-2661.3550,-3354.9968,-438.4294,-2617.0986,101328.5703,-6695.8447,-6826.0884,-7010.6021,36038.3867,-2955.0569,-3184.7659,-6304.4434,-7108.3237,78986.7031,7.923553
6375.8574,6309.2939,5967.0884,5709.7305,70316.4844,85.1154,83953.1719,-1831.4348,5140.3647,4662.0820,7095.6279,5720.5488,101422.8906,-194.9519,-704.8846,-1258.2244,36112.7734,4966.0879,4949.4805,833.8541,-1753.2931,78973.3359,7.927551
11958.6299,-3576.1001,-3705.9861,-4104.3164,69735.7891,-7452.5630,83515.3438,-7954.4043,-4510.0005,-4774.7349,-2719.0225,-4004.2703,101189.6719,-7520.3784,-7636.1157,-7782.0054,35636.1914,-4667.6924,-4584.7671,-7283.6733,-7979.6621,78730.7969,7.931549
20481.9531,-16842.8652,-16889.7383,-16962.3359,69517.0781,-17005.0273,83206.0625,-16949.6621,-16843.2676,-16886.6074,-16772.5469,-16923.0410,100978.9844,-17020.8301,-16960.5469,-16979.8145,35344.1211,-16929.4785,-16959.1836,-17085.2930,-17012.0020,78663.7656,7.935547
11681.7588,-3830.9102,-3950.2461,-4310.8916,70065.1875,-8379.9365,83681.3984,-8402.7803,-4449.4277,-5099.0361,-2807.2896,-4323.0952,101270.0313,-8464.2480,-8417.3535,-8430.4297,35837.6445,-4717.4473,-4895.3447,-8043.4092,-8461.9453,78871.9063,7.939545
11659.9209,-4115.6265,-4287.6455,-4844.4946,69653.6875,-8368.4258,83455.0156,-8523.3008,-5508.6992,-5747.8179,-3226.8542,-4688.2334,101202.2344,-8584.3887,-8537.7627,-8551.0176,35563.5000,-5729.7354,-5571.8203,-7710.3682,-8582.7119,78686.0703,7.943542
19655.8555,-16240.9111,-16291.1133,-16373.1660,69328.8516,-16386.2637,83104.8750,-16330.9883,-16276.6064,-16290.1963,-16189.9717,-16323.3662,100968.2578,-16401.3516,-16342.0752,-16360.9180,35219.5547,-16353.4746,-16367.2207,-16466.1934,-16393.1270,78574.7188,7.947540
10891.2002,-1902.4016,-2002.9845,-2430.6179,70242.6094,-6539.4941,83789.6484,-7114.0234,-2512.9619,-3207.5647,-306.7106,-2476.8638,101329.2344,-6681.4277,-7025.5332,-7138.3198,35915.9453,-2794.3257,-3005.3708,-6249.5254,-7173.0991,78934.5156,7.951538
6965.3843,5934.4551,5606.2866,5257.1973,70182.5078,-474.8851,83840.0078,-3164.8057,4588.6567,4137.3970,6749.4219,5296.8491,101404.9453,-880.3234,-2642.8032,-3174.4617,35942.6758,4427.8359,4481.3013,445.0456,-3223.7026,78892.1094,7.955536
12502.0898,-4880.9727,-5040.9219,-5579.1963,69577.0703,-8302.0859,83384.7031,-8878.9395,-6139.0405,-6338.7759,-4050.1360,-5430.2666,101178.4531,-8431.8379,-8809.5371,-8903.9736,35456.9727,-6282.2036,-6126.1211,-8075.7520,-8938.7754,78635.8672,7.959534
20009.5273,-16704.2617,-16751.4922,-16828.7402,69468.8594,-16912.5586,83145.3828,-16857.2832,-16708.7324,-16756.5879,-16587.1621,-16791.9941,101005.2734,-16928.2949,-16868.2129,-16887.2344,35255.2500,-16797.0215,-16829.5449,-16992.7793,-16919.5547,78619.7734,7.963531
10918.5137,-3050.6553,-3199.2498,-3527.7534,70110.0625,-7310.7861,83687.9688,-7810.7275,-3650.3079,-4218.1763,-1894.9138,-3564.7678,101324.9688,-7456.5640,-7658.0425,-7791.4380,35796.4531,-3895.9312,-4067.1680,-7052.7798,-7869.8926,78870.8125,7.967529
6268.7031,6133.4302,5763.6655,5534.9849,70195.5625,-309.0352,83837.5703,-3012.3220,4948.7656,4496.5898,6849.9824,5534.0010,101441.8906,-638.6787,-1529.0604,-2561.5098,35909.3281,4799.5229,4804.8647,544.1755,-3071.5095,78889.7188,7.971527
19888.9609,-16017.1250,-16067.2383,-16146.6533,69322.9297,-16215.5195,83064.9609,-16160.4004,-16050.7422,-16073.7422,-15953.2217,-16099.5586,100988.8672,-16230.4727,-16171.5313,-16190.1729,35123.4414,-16128.1016,-16141.1553,-16295.5166,-16222.4258,78542.7734,7.975525
19797.0742,-15847.8779,-15892.6709,-15973.2715,69587.6406,-16044.4395,83207.3125,-15989.5205,-15852.5498,-15901.2314,-15729.6816,-15935.7432,101044.7422,-16059.4150,-16000.5625,-16019.2715,35284.1055,-15937.9111,-15970.4551,-16124.3916,-16051.3906,78655.4922,7.979523
11505.9404,-3016.9265,-3122.9856,-3501.5125,70072.0938,-7842.8247,83639.8906,-7811.2417,-3619.7754,-4212.4766,-1821.7565,-3533.8777,101310.0391,-7872.3511,-7825.9268,-7838.6226,35711.9414,-3843.5610,-4004.7395,-7305.1309,-7870.1382,78835.9219,7.983521
7293.3965,5428.5679,5102.7021,4704.0137,70024.9531,-3779.1433,83701.1328,-3840.1636,4001.9233,3630.7502,6321.8999,4742.4590,101398.1016,-3896.9595,-3857.1733,-3865.9800,35742.2930,3881.7378,3956.4375,-694.4910,-3897.9653,78795.5703,7.987518
12318.6270,-5529.7319,-5737.9609,-6271.1841,69491.4375,-9139.8516,83293.9531,-9106.0332,-6778.6582,-6873.1167,-4558.0791,-6137.7886,101193.7656,-9168.5068,-9120.3389,-9134.0625,35325.6328,-6872.5132,-6737.4639,-8445.3154,-9165.7793,78572.2813,7.991516
20094.9766,-16961.1504,-17011.0625,-17076.6660,69153.0781,-17048.9707,82935.6953,-16993.4941,-16962.3359,-16969.1094,-16933.4355,-17031.4258,100970.1094,-17064.5957,-17004.2676,-17023.5566,35002.8320,-17034.3984,-17050.7813,-17129.2148,-17055.8789,78456.5391,7.995514
19177.5723,-15755.4092,-15799.4414,-15895.0625,69550.8672,-16052.1055,83170.9063,-15997.2773,-15772.9551,-15848.2578,-15518.7266,-15862.2500,101069.8047,-16067.2383,-16008.3408,-16027.0049,35251.6953,-15869.5371,-15912.6309,-16131.6553,-16059.1465,78630.6172,7.999512
10401.5625,-1842.1637,-1989.3275,-2357.5725,70179.1563,-6302.0967,83703.4141,-6857.6045,-2467.0513,-3140.2188,-380.8737,-2412.1777,101373.6250,-6431.9824,-6571.0771,-6771.3711,35755.4805,-2732.0313,-2942.4507,-5970.6426,-6898.2173,78871.5234,8.003510
6348.4092,6192.4390,5799.7856,5596.4072,70195.5391,112.3399,83801.9375,-1740.5303,5003.6167,4546.1880,6874.0327,5604.2749,101461.2734,-108.2271,-626.0947,-1148.8350,35801.9492,4859.5596,4879.0728,959.9403,-1684.4720,78858.6094,8.007507
11998.3711,-3760.9268,-3940.2996,-4285.6338,69631.5156,-7521.5405,83372.1641,-7966.2510,-4722.4985,-4974.8721,-3037.4231,-4186.9512,101235.0703,-7570.6250,-7688.2847,-7804.9604,35338.7539,-4856.1621,-4736.4907,-7335.4849,-7996.7832,78618.3047,8.011505
20555.7578,-16684.2793,-16734.4160,-16808.7578,69181.3516,-16857.2832,82937.7734,-16801.9395,-16710.3867,-16728.8711,-16640.6270,-16761.1250,100976.9531,-16872.8613,-16812.8027,-16831.9141,34931.4609,-16786.7402,-16798.2285,-16937.5039,-16864.2559,78444.4297,8.015503
20209.0605,-16562.1504,-16611.7715,-16684.7266,69424.5391,-16729.6094,83067.1484,-16674.4902,-16567.0234,-16609.5352,-16493.4629,-16645.5898,101032.1406,-16745.1895,-16685.3086,-16704.3750,35095.3672,-16651.4688,-16680.2344,-16809.9648,-16736.7168,78554.1719,8.019501
20209.0605,-16562.1504,-16611.7715,-16684.7266,69424.5391,-16729.6094,83067.1484,-16674.4902,-16567.0234,-16609.5352,-16493.4629,-16645.5898,101032.1406,-16745.1895,-16685.3086,-16704.3750,35095.3672,-16651.4688,-16680.2344,-16809.9648,-16736.7168,78554.1719,8.023499
11503.7051,-3645.7705,-3805.2949,-4147.6118,69961.7813,-8188.4941,83541.4063,-8222.2002,-4308.8125,-4924.3350,-2684.1538,-4163.1689,101321.2578,-8271.3740,-8236.5947,-8249.6035,35557.5547,-4546.8589,-4694.4473,-7793.4272,-8281.2314,78759.2500,8.027496
6877.7207,5635.2993,5265.3555,4967.2280,69999.8750,-3094.6213,83662.9766,-3752.3438,4212.1636,3768.1462,6356.2549,5011.7305,101428.4766,-3692.0833,-3769.2639,-3777.9587,35637.1523,4062.4741,4156.1055,-577.1891,-3809.9666,78755.4063,8.031494
11683.9043,-4358.6348,-4595.0044,-5047.1802,69540.1172,-8402.9814,83301.2344,-8545.2500,-5724.1699,-5928.2637,-3586.4714,-4896.1270,101235.1406,-8572.8545,-8559.6895,-8572.8994,35263.0938,-5858.1909,-5663.1050,-7739.3359,-8604.3936,78566.9375,8.035492
19553.7754,-16152.6660,-16206.4443,-16279.1328,69238.1016,-16281.9717,82965.6250,-16226.8740,-16179.3096,-16190.7988,-16118.1553,-16230.4053,101018.8594,-16297.0137,-16237.9609,-16256.6914,34953.3008,-16252.5117,-16265.8105,-16361.9238,-16288.9004,78461.6406,8.039490
19011.0293,-15187.4287,-15232.4678,-15328.1328,69599.2422,-15479.9014,83177.6094,-15425.4297,-15205.0195,-15278.3779,-14941.0674,-15293.6670,101106.4609,-15494.6533,-15436.6504,-15455.0684,35173.5977,-15300.3945,-15340.1807,-15559.9648,-15487.1436,78617.1875,8.043488
10720.7012,-1759.3728,-1906.9838,-2277.6650,70130.2500,-6338.8872,83644.8281,-6941.5127,-2378.6501,-3030.3601,-275.4629,-2319.2170,101376.8047,-6449.1934,-6826.4238,-6965.0493,35620.1875,-2634.0188,-2803.1099,-5988.8594,-7000.4321,78820.8984,8.047485
6961.9648,5782.9326,5380.1318,5096.2197,70066.6328,-469.0290,83692.9531,-3159.5530,4402.3770,3999.4868,6501.7871,5145.1704,101445.6875,-725.6047,-2550.0435,-3167.1079,35619.3594,4263.2822,4367.4858,522.8297,-3218.4722,78774.5391,8.051483
6961.9648,5782.9326,5380.1318,5096.2197,70066.6328,-469.0290,83692.9531,-3159.5530,4402.3770,3999.4868,6501.7871,5145.1704,101445.6875,-725.6047,-2550.0435,-3167.1079,35619.3594,4263.2822,4367.4858,522.8297,-3218.4722,78774.5391,8.055481
12549.4531,-5132.4072,-5383.0820,-5834.6768,69474.2266,-8370.7725,83242.7891,-8924.6484,-6391.2354,-6538.2651,-4396.2749,-5679.7344,101221.3047,-8445.4727,-8847.4463,-8949.5039,35147.9141,-6520.2944,-6333.0762,-8138.8735,-8984.4170,78518.3438,8.059479
20673.6426,-17260.4863,-17313.7500,-17380.9395,69050.2578,-17367.7305,82824.0938,-17312.1406,-17272.6895,-17281.1621,-17239.3184,-17333.6211,100975.8359,-17383.4883,-17322.6680,-17342.0703,34774.0586,-17346.5410,-17359.8613,-17447.7031,-17374.4121,78358.6406,8.063477
19766.8984,-16447.2852,-16498.0684,-16572.0742,69378.4922,-16667.8516,83014.4688,-16612.8438,-16454.0801,-16505.1758,-16353.8096,-16534.5020,101061.4844,-16683.3867,-16623.5723,-16642.5488,34998.0234,-16539.9766,-16571.4043,-16747.9375,-16674.7578,78507.6797,8.067474
10750.6074,-2834.2681,-3025.5320,-3300.6819,70002.7969,-7127.2334,83549.9453,-7639.8481,-3445.1636,-4013.0098,-1885.1908,-3325.6711,101372.4922,-7244.5576,-7484.3921,-7602.0293,35507.1758,-3658.2205,-3795.6167,-6830.6479,-7696.9346,78751.2969,8.071472
6259.2705,6033.0483,5600.2295,5434.1782,70078.4844,-324.5697,83692.4141,-2995.5137,4830.0107,4395.3809,6625.6157,5449.1538,101479.5547,-564.5827,-1503.4677,-2442.5986,35593.2305,4696.3472,4754.3945,597.3057,-3042.3853,78767.1875,8.075470
11485.6895,-3440.7827,-3686.7412,-4000.0457,69600.4453,-7307.7461,83315.8750,-7977.5610,-4435.1445,-4703.8799,-2738.9827,-3902.5474,101274.0547,-7350.6392,-7519.2158,-7839.0693,35190.6289,-4569.7021,-4429.1992,-7112.0342,-8034.7813,78569.1719,8.079468
19816.2969,-15958.9219,-16014.6670,-16088.0703,69231.3047,-16140.7754,82933.5781,-16085.8125,-15990.2588,-16010.6885,-15911.5801,-16040.0811,101039.7813,-16155.7959,-16096.7871,-16115.5176,34832.2422,-16066.2988,-16077.0947,-16220.8164,-16147.7266,78428.8672,8.083466
19579.6582,-15615.6436,-15664.9287,-15743.0928,69497.7422,-15824.4980,83079.9297,-15769.7363,-15623.5107,-15675.9258,-15515.9326,-15704.8936,101100.6484,-15839.3398,-15780.8232,-15799.4189,35002.0703,-15709.0732,-15740.2324,-15904.5840,-15831.5166,78544.4297,8.087463
11337.8770,-2798.4160,-2959.3484,-3287.4275,69971.0625,-7671.1631,83509.0859,-7640.5635,-3419.5486,-4021.0786,-1787.0667,-3310.1367,101359.4766,-7700.3096,-7655.1367,-7667.6987,35418.8203,-3633.7007,-3759.0269,-7021.6660,-7699.2593,78723.7813,8.091461
7280.7227,5282.5439,4858.6655,4544.4448,69917.1250,-3768.1912,83565.4141,-3824.8528,3843.0247,3495.4104,6048.1138,4599.3853,101438.3594,-3876.3064,-3841.6165,-3850.4009,35433.7734,3744.9006,3863.6777,-421.0398,-3882.4756,78680.4141,8.095459
12371.7344,-5803.7422,-6114.4087,-6538.4438,69387.3906,-9192.7354,83156.9766,-9156.8613,-6998.5767,-7073.2764,-4969.9995,-6394.9458,101233.7500,-9218.5068,-9170.8984,-9184.7119,35019.5508,-7071.7563,-6926.2241,-8451.9092,-9216.4512,78458.6016,8.099457
20032.3262,-16905.6973,-16958.4238,-17017.9473,69056.8281,-16984.3965,82800.6719,-16929.0098,-16899.9961,-16906.3457,-16893.0449,-16972.6621,101016.2500,-16999.8867,-16939.7168,-16959.0273,34708.9961,-16971.6563,-16988.6660,-17064.5723,-16991.4160,78342.7500,8.103455
18957.3184,-15524.5596,-15572.7725,-15665.8682,69459.2969,-15830.1982,83041.8203,-15775.4805,-15544.8779,-15618.7949,-15309.4912,-15634.3066,101122.8203,-15845.1289,-15786.6563,-15805.2305,34968.2734,-15641.2588,-15682.0732,-15909.0996,-15837.4170,78520.2891,8.107452
10214.8809,-1676.9396,-1862.7050,-2192.9519,70078.5078,-6083.4072,83571.2031,-6637.9316,-2316.6240,-2953.9395,-377.6774,-2259.6272,101420.5859,-6177.5527,-6348.2080,-6524.6753,35464.2383,-2563.9460,-2740.8601,-5705.3271,-6666.4297,78763.2734,8.111450
6323.5542,6074.8462,5630.3594,5476.1548,70090.8438,127.0250,83667.6250,-1572.7581,4868.9697,4440.0176,6637.4619,5468.6221,101502.4219,-12.5170,-556.0443,-985.3542,35497.9219,4759.8931,4812.1963,1028.6049,-1478.5007,78750.4219,8.115448
12052.3057,-3992.6250,-4230.2686,-4524.9316,69530.6172,-7605.1582,83236.8438,-7990.3013,-4963.0708,-5192.9136,-3387.8091,-4446.2983,101276.6016,-7634.1484,-7743.5156,-7843.9644,35035.2617,-5060.3901,-4918.6353,-7411.4360,-8013.5693,78509.1563,8.119446
20513.6250,-16656.7871,-16711.0801,-16779.6113,69086.7344,-16813.6289,82802.9297,-16758.3086,-16678.8047,-16694.9414,-16628.2676,-16733.7676,101025.4766,-16828.9863,-16768.9492,-16788.0820,34640.8008,-16752.8770,-16763.6953,-16893.4922,-16820.3809,78336.7813,8.123444
20007.7617,-16350.2783,-16401.1055,-16473.2344,69339.8281,-16526.6328,82942.1563,-16471.6484,-16356.9834,-16401.3516,-16290.1963,-16436.3555,101091.4609,-16542.0117,-16482.4219,-16501.3750,34815.6133,-16439.1934,-16468.2500,-16606.7871,-16533.6973,78451.4688,8.127441
11331.2393,-3442.9285,-3621.0942,-3933.7280,69869.8516,-8016.3633,83414.4297,-8047.5664,-4112.5195,-4719.3247,-2609.0967,-3980.0186,101375.1484,-8075.1709,-8062.0952,-8074.8804,35268.3242,-4303.2246,-4440.4868,-7489.5776,-8106.4858,78656.3672,8.131439
6854.3408,5514.9800,5088.8887,4821.6958,69894.6641,-3037.8479,83525.5391,-3726.9744,4033.1487,3620.6248,6110.9668,4831.5083,101470.2969,-3416.3970,-3743.9395,-3752.6118,35334.5078,3954.9399,4070.7219,-320.0099,-3784.6643,78650.4688,8.135437
11741.7734,-4616.1045,-4934.0581,-5357.0649,69439.0703,-8433.0000,83164.4453,-8601.3086,-6038.6587,-6211.1025,-3979.4375,-5244.0322,101280.3125,-8540.4229,-8615.6133,-8628.9805,34962.3945,-6109.5586,-5903.6094,-7804.0444,-8660.6074,78462.5313,8.139435
19513.6094,-16124.5703,-16181.9023,-16249.0693,69148.3828,-16240.1514,82835.4531,-16185.1211,-16145.3125,-16155.0801,-16105.9287,-16203.0244,101075.1875,-16255.0596,-16196.0283,-16214.7598,34664.0000,-16216.6592,-16230.2490,-16320.0811,-16246.9912,78357.4766,8.143433
18797.7266,-14959.0605,-15002.8252,-15101.2402,69511.1953,-15265.1006,83048.9531,-15210.6523,-14979.2666,-15055.1289,-14737.5332,-15070.4619,101164.6406,-15279.4512,-15221.9395,-15240.0000,34890.9375,-15070.9766,-15111.9912,-15344.4492,-15272.0078,78513.1563,8.147430
10530.9795,-1564.7114,-1711.5177,-2079.4497,70034.0234,-6109.5586,83512.4609,-6749.8911,-2193.8459,-2832.2566,-260.8001,-2151.8247,101427.7188,-6186.5156,-6541.4390,-6760.3745,35328.1367,-2405.8523,-2570.8306,-5709.9766,-6808.6094,78715.7578,8.151428
12611.1670,-5342.2231,-5649.6270,-6066.8442,69368.9922,-8444.3096,83102.5781,-8984.8867,-6637.0151,-6737.0840,-4717.2686,-5948.4917,101264.1484,-8478.3516,-8871.2061,-9001.5615,34840.0195,-6731.5405,-6529.8608,-8218.5801,-9044.5664,78408.3281,8.155426
20629.6758,-17223.4941,-17278.4336,-17341.7344,68953.4297,-17321.9746,82688.2891,-17266.5215,-17231.6074,-17238.8711,-17213.1445,-17296.4727,101027.8281,-17337.8223,-17277.0254,-17296.5391,34479.3320,-17304.5195,-17318.2207,-17402.1953,-17328.9277,78252.9844,8.159424
19562.6699,-16233.3340,-16282.5527,-16360.4033,69293.4922,-16461.6563,82889.2266,-16406.7168,-16242.5430,-16295.1367,-16142.0938,-16325.0654,101123.4453,-16477.1250,-16417.4902,-16436.4883,34709.5547,-16327.3232,-16358.1455,-16541.8555,-16468.7422,78402.2969,8.163422
10564.7080,-2661.1316,-2839.9009,-3136.0391,69908.1172,-6900.9668,83420.8438,-7452.6304,-3282.8230,-3844.5222,-1783.7139,-3185.1682,101426.2422,-6973.9453,-7235.8853,-7387.7432,35211.0156,-3470.5776,-3590.3831,-6566.3164,-7508.3755,78643.3828,8.167419
6212.3765,5918.6074,5479.7759,5323.1348,69968.0469,-258.1180,83552.0703,-2949.9385,4710.8086,4285.2539,6400.0640,5312.0483,101518.7813,-381.7231,-1267.7015,-2179.9878,35283.9922,4618.7866,4701.6001,704.4822,-2980.8955,78653.7266,8.171417
11539.1328,-3691.2117,-3949.6201,-4232.3252,69493.6016,-7381.9541,83176.8047,-8030.8027,-4668.4521,-4925.5195,-3123.8574,-4159.9727,101316.3203,-7404.6411,-7554.2856,-7831.7383,34872.9883,-4763.4248,-4602.2017,-7178.3521,-8083.0161,78452.6094,8.175415
19769.8711,-15931.2725,-15987.4199,-16056.0850,69137.3438,-16094.5068,82802.5234,-16039.4326,-15955.8369,-15974.1650,-15901.9473,-16010.2637,101093.2031,-16109.4385,-16050.4961,-16069.1826,34516.1445,-16029.4639,-16039.6338,-16174.5938,-16101.3467,78315.4141,8.179413
19351.4473,-15374.3789,-15419.3730,-15504.2646,69409.1563,-15595.9287,82954.4531,-15541.2568,-15384.9063,-15438.9971,-15287.0059,-15468.6582,101158.5859,-15610.6816,-15552.5000,-15570.9395,34698.4688,-15469.2842,-15499.5039,-15675.9707,-15602.9922,78436.6016,8.183411
11134.5879,-2565.1309,-2687.6184,-3057.9868,69877.2500,-7424.8247,83384.2109,-7436.7827,-3190.9573,-3774.4272,-1695.1786,-3107.4065,101412.7031,-7467.3374,-7451.6465,-7463.9399,35125.1172,-3379.1589,-3479.3843,-6714.0615,-7495.4785,78615.5078,8.187408
7233.0244,5138.7554,4712.5972,4399.7617,69814.0156,-3503.4124,83436.2891,-3776.8411,3711.3281,3395.1404,5776.6963,4417.1294,101482.5469,-3669.1729,-3793.7168,-3802.3892,35136.9648,3635.0193,3782.5632,-235.9003,-3834.4863,78568.0781,8.191406
12414.2930,-6068.5210,-6395.4375,-6779.3730,69279.3438,-9200.9160,83021.5078,-9198.8828,-7186.6890,-7236.4888,-5370.9897,-6677.9185,101275.7500,-9235.1592,-9212.9639,-9226.6885,34707.2734,-7255.1523,-7106.4912,-8497.5068,-9258.4053,78342.5000,8.195404
19972.2656,-16852.6777,-16904.8926,-16961.3301,68965.8828,-16923.5547,82676.8906,-16868.2344,-16840.5195,-16846.4648,-16851.3145,-16917.5645,101072.5313,-16939.0684,-16878.8965,-16898.0742,34393.2969,-16912.0449,-16929.5020,-17003.5742,-16930.4180,78232.3125,8.199402
18723.9883,-15260.0273,-15285.5752,-15406.0283,69380.6641,-15595.7275,82929.4609,-15541.2568,-15284.7256,-15371.3164,-15059.3535,-15379.2070,101188.2891,-15610.6143,-15552.5225,-15570.9180,34665.5195,-15378.7598,-15420.4014,-15672.2822,-15603.0146,78412.9375,8.203400
9971.5820,-1366.0269,-1410.2385,-1888.1189,69989.2344,-5781.7480,83454.0781,-6307.1929,-2008.4159,-2698.0120,-228.4572,-1985.4384,101475.9297,-5855.1958,-6053.6567,-6201.1113,35179.5430,-2224.4456,-2383.3887,-5324.5430,-6337.7920,78653.4844,8.207397
6230.1240,5995.7656,5631.1416,5402.7070,69990.0156,219.4271,83544.2656,-1157.7980,4803.1660,4361.0264,6425.8135,5369.2017,101547.9922,134.5575,-436.7307,-757.4559,35217.0508,4718.6987,4803.3672,1175.5676,-1111.6639,78639.6719,8.211395
12072.1094,-4171.8638,-4352.1304,-4689.2393,69429.4531,-7641.6812,83111.1563,-7931.4043,-5107.8428,-5343.7656,-3710.7695,-4635.1035,101324.8984,-7657.6182,-7775.2998,-7851.8994,34739.1914,-5181.2236,-5014.4351,-7440.5376,-7971.0786,78396.4141,8.215393
12072.1094,-4171.8638,-4352.1304,-4689.2393,69429.4531,-7641.6812,83111.1563,-7931.4043,-5107.8428,-5343.7656,-3710.7695,-4635.1035,101324.8984,-7657.6182,-7775.2998,-7851.8994,34739.1914,-5181.2236,-5014.4351,-7440.5376,-7971.0786,78396.4141,8.219391
12072.1094,-4171.8638,-4352.1304,-4689.2393,69429.4531,-7641.6812,83111.1563,-7931.4043,-5107.8428,-5343.7656,-3710.7695,-4635.1035,101324.8984,-7657.6182,-7775.2998,-7851.8994,34739.1914,-5181.2236,-5014.4351,-7440.5376,-7971.0786,78396.4141,8.223389
20434.3438,-16588.8613,-16639.1074,-16708.7559,68996.4141,-16733.5664,82683.0781,-16678.2461,-16605.3789,-16621.1367,-16576.0313,-16664.6563,101083.6797,-16748.8770,-16689.1523,-16708.1289,34333.3047,-16678.1777,-16688.2363,-16813.4961,-16740.5391,78225.6016,8.227386
19737.9531,-16065.8750,-16093.7246,-16188.8984,69255.1094,-16255.6406,82825.5703,-16200.6777,-16072.1777,-16117.7305,-16013.9961,-16154.4326,101150.8516,-16270.7510,-16211.5635,-16230.3164,34511.6719,-16155.6387,-16183.7354,-16335.5264,-16262.5479,78338.2344,8.231384
19737.9531,-16065.8750,-16093.7246,-16188.8984,69255.1094,-16255.6406,82825.5703,-16200.6777,-16072.1777,-16117.7305,-16013.9961,-16154.4326,101150.8516,-16270.7510,-16211.5635,-16230.3164,34511.6719,-16155.6387,-16183.7354,-16335.5264,-16262.5479,78338.2344,8.235382
11043.5273,-3138.8555,-3056.9585,-3605.4255,69785.6563,-7597.8271,83293.4375,-7758.2007,-3774.1367,-4334.8750,-2450.2429,-3681.1980,101422.3750,-7641.3682,-7773.0200,-7785.5371,34971.0469,-3962.0701,-4065.6257,-7047.2144,-7817.1646,78538.1016,8.239380
11043.5273,-3138.8555,-3056.9585,-3605.4255,69785.6563,-7597.8271,83293.4375,-7758.2007,-3774.1367,-4334.8750,-2450.2429,-3681.1980,101422.3750,-7641.3682,-7773.0200,-7785.5371,34971.0469,-3962.0701,-4065.6257,-7047.2144,-7817.1646,78538.1016,8.243378
6698.1694,5460.3745,5331.1592,4795.8350,69810.2188,-2012.7075,83393.0625,-3569.0146,4009.8135,3611.8406,5845.9199,4759.4238,101500.3594,-2195.7458,-3586.3149,-3594.7415,35022.2305,3953.8894,4121.7285,21.8824,-3627.0173,78527.7969,8.247375
6698.1694,5460.3745,5331.1592,4795.8350,69810.2188,-2012.7075,83393.0625,-3569.0146,4009.8135,3611.8406,5845.9199,4759.4238,101500.3594,-2195.7458,-3586.3149,-3594.7415,35022.2305,3953.8894,4121.7285,21.8824,-3627.0173,78527.7969,8.251373
11674.1143,-4667.1558,-4686.2666,-5370.9897,69357.1484,-8154.2739,83030.5391,-8532.8672,-6042.1680,-6227.5088,-4268.1104,-5311.7803,101312.5000,-8199.2012,-8547.3965,-8560.4717,34633.2461,-6090.5596,-5838.3203,-7742.1299,-8592.3232,78339.9766,8.255371
11674.1143,-4667.1558,-4686.2666,-5370.9897,69357.1484,-8154.2739,83030.5391,-8532.8672,-6042.1680,-6227.5088,-4268.1104,-5311.7803,101312.5000,-8199.2012,-8547.3965,-8560.4717,34633.2461,-6090.5596,-5838.3203,-7742.1299,-8592.3232,78339.9766,8.259369
19321.0254,-15936.9277,-15978.2109,-16058.8115,69079.1328,-16047.4570,82707.3984,-15992.5381,-15953.4902,-15963.4141,-15935.8096,-16015.1357,101118.5938,-16062.3203,-16003.6699,-16022.2666,34334.1992,-16024.2783,-16037.0859,-16127.5430,-16054.6543,78238.7500,8.263367
18399.5078,-14512.5400,-14452.1455,-14665.5820,69446.6406,-14866.8604,82926.0391,-14812.6348,-14541.3066,-14632.0322,-14320.1367,-14643.2979,101212.8516,-14881.1426,-14824.1904,-14842.0049,34586.5508,-14636.6367,-14678.9717,-14943.6162,-14874.2588,78398.7656,8.267365
18399.5078,-14512.5400,-14452.1455,-14665.5820,69446.6406,-14866.8604,82926.0391,-14812.6348,-14541.3066,-14632.0322,-14320.1367,-14643.2979,101212.8516,-14881.1426,-14824.1904,-14842.0049,34586.5508,-14636.6367,-14678.9717,-14943.6162,-14874.2588,78398.7656,8.271362
10122.8809,-1060.8361,-611.6331,-1604.7881,69961.3359,-5576.6704,83391.0469,-6297.1343,-1709.6178,-2387.5239,-55.7005,-1731.4554,101471.3750,-5632.0806,-5874.5298,-6110.2739,35055.7578,-1921.2218,-2066.2622,-5099.5278,-6324.8950,78601.6484,8.275360
10122.8809,-1060.8361,-611.6331,-1604.7881,69961.3359,-5576.6704,83391.0469,-6297.1343,-1709.6178,-2387.5239,-55.7005,-1731.4554,101471.3750,-5632.0806,-5874.5298,-6110.2739,35055.7578,-1921.2218,-2066.2622,-5099.5278,-6324.8950,78601.6484,8.279358
6680.3999,5672.8950,5711.1611,5004.1309,69876.7344,-69.8045,83425.6719,-2677.7612,4290.7974,3918.6184,5943.2837,4955.3369,101521.6641,-115.8044,-1000.7993,-1798.0413,35043.3984,4235.2310,4404.4336,912.5323,-2604.1123,78544.3828,8.283356
12455.3301,-5236.0078,-5072.4600,-5887.2036,69276.9531,-8252.9121,82967.4375,-8804.1055,-6450.4004,-6586.8799,-4961.7964,-5840.0190,101292.9844,-8258.2314,-8511.2314,-8694.2920,34559.6836,-6492.1982,-6240.9868,-8059.7480,-8847.5127,78289.8906,8.287354
12455.3301,-5236.0078,-5072.4600,-5887.2036,69276.9531,-8252.9121,82967.4375,-8804.1055,-6450.4004,-6586.8799,-4961.7964,-5840.0190,101292.9844,-8258.2314,-8511.2314,-8694.2920,34559.6836,-6492.1982,-6240.9868,-8059.7480,-8847.5127,78289.8906,8.291351
20381.0352,-16973.3770,-17005.9219,-17089.8086,68876.0234,-17072.9551,82560.5000,-17017.5000,-16980.1055,-16988.4648,-16983.1016,-17046.8926,101068.3906,-17088.5117,-17028.2070,-17047.4297,34195.4648,-17051.7207,-17063.6348,-17153.0625,-17079.9961,78137.7656,8.295349
19117.1563,-15749.5078,-15729.1230,-15883.2607,69225.4531,-16015.5830,82771.1016,-15960.8662,-15765.4004,-15822.8213,-15681.7822,-15856.0361,101173.3984,-16030.7148,-15971.8408,-15990.4600,34451.7695,-15852.6162,-15883.7969,-16094.7080,-16022.8027,78292.6563,8.299347
19117.1563,-15749.5078,-15729.1230,-15883.2607,69225.4531,-16015.5830,82771.1016,-15960.8662,-15765.4004,-15822.8213,-15681.7822,-15856.0361,101173.3984,-16030.7148,-15971.8408,-15990.4600,34451.7695,-15852.6162,-15883.7969,-16094.7080,-16022.8027,78292.6563,8.303345
10069.9971,-2089.7764,-1714.0881,-2589.0918,69825.1250,-6295.8379,83298.1563,-6807.2905,-2735.2500,-3275.9609,-1507.0439,-2710.6631,101467.6406,-6334.9980,-6542.8472,-6722.1973,34992.1016,-2919.6965,-3016.6807,-5875.7593,-6837.5547,78534.1016,8.307343
5872.5630,5957.5889,6011.3003,5345.4863,69873.3359,85.4060,83422.5156,-1398.3474,4751.2207,4368.7153,6104.5518,5262.2261,101551.8203,52.5266,-580.3407,-990.5846,35088.7266,4688.2109,4791.0737,1083.4337,-1309.7898,78543.3125,8.311340
5872.5630,5957.5889,6011.3003,5345.4863,69873.3359,85.4060,83422.5156,-1398.3474,4751.2207,4368.7153,6104.5518,5262.2261,101551.8203,52.5266,-580.3407,-990.5846,35088.7266,4688.2109,4791.0737,1083.4337,-1309.7898,78543.3125,8.315338
11304.2822,-3500.7524,-3287.5391,-4049.8455,69406.9922,-7172.4956,83050.7188,-7442.1025,-4441.1128,-4636.4893,-3271.5576,-4045.1963,101356.1484,-7176.5859,-7299.7441,-7370.9121,34694.9141,-4495.2485,-4339.2334,-6955.5498,-7464.9683,78344.7578,8.319336
18824.5273,-14805.7949,-14767.0146,-14942.1855,69324.4219,-15069.5684,82831.6250,-15015.2305,-14821.7539,-14881.8799,-14737.5771,-14913.5303,101205.9219,-15083.8730,-15026.5859,-15044.6680,34570.7500,-14905.8418,-14936.5977,-15149.4980,-15076.6982,78328.4219,8.323334
10594.0117,-1915.7456,-1409.2328,-2428.7852,69782.7891,-6459.3408,83262.5000,-6895.9824,-2551.1609,-3099.5833,-1340.9705,-2539.5828,101455.5938,-6492.1982,-6895.7588,-6922.5361,35022.0313,-2717.2122,-2791.7551,-5956.4043,-6954.5884,78504.4844,8.327332
12122.6689,-5548.2168,-5262.6958,-6332.8525,69169.8828,-8505.3750,82880.0234,-8906.2979,-6845.8027,-6915.4731,-5373.3594,-6298.9004,101302.4141,-8488.9463,-8911.7295,-8933.8135,34629.4883,-6872.0884,-6622.5757,-8155.7041,-8965.8652,78225.2031,8.331329
18154.9570,-14614.6650,-14486.4111,-14786.3047,69287.6797,-15024.6406,82802.9922,-14972.4717,-14658.9883,-14764.0869,-14458.8066,-14770.1660,101234.1563,-15039.5273,-14983.7598,-15001.8867,34647.4141,-14758.6553,-14803.2471,-15085.8848,-15033.9170,78298.6250,8.335327
5852.2007,6043.4868,6140.5156,5384.5796,69860.5547,527.4117,83400.9688,-587.0462,4809.4023,4403.4946,6090.2690,5312.6743,101570.8594,508.5245,-77.1582,-339.9030,35206.4102,4736.3120,4845.3662,1581.8999,-518.0240,78516.6484,8.339325
20095.0898,-16243.8613,-16263.8438,-16369.1650,68838.8125,-16396.1445,82513.2734,-16340.8682,-16263.6201,-16276.8975,-16255.3506,-16327.0322,101103.3281,-16411.0078,-16351.7314,-16370.6855,34312.2734,-16336.3311,-16346.4111,-16475.8281,-16402.8047,78103.9453,8.343323
19251.4004,-15539.7588,-15529.5889,-15674.1377,69098.8750,-15770.2725,82665.4688,-15715.5332,-15557.6855,-15611.2627,-15509.8525,-15642.2422,101179.3047,-15784.9805,-15726.5752,-15745.1719,34508.6992,-15639.3359,-15667.3203,-15850.2021,-15777.2246,78220.9297,8.347321
10553.8672,-2484.5305,-2112.9773,-3030.1589,69608.4063,-6907.4937,83134.0469,-7269.1670,-3192.4324,-3749.6392,-2105.8918,-3119.9233,101448.9766,-6894.9766,-7213.1982,-7295.5195,34978.3125,-3346.6147,-3418.1628,-6393.7607,-7327.9521,78419.8203,8.351318
6363.7427,5560.3315,5654.8345,4830.6587,69611.2891,-919.6401,83227.9219,-3234.2749,4101.1875,3725.7227,5585.1196,4782.1108,101525.8438,-831.3508,-2812.7659,-3255.2632,35037.4766,4065.8269,4265.6069,447.5043,-3292.7024,78409.6016,8.355316
19044.5801,-15654.6699,-15684.5986,-15779.6826,68893.1719,-15771.6143,82545.4375,-15716.7852,-15673.7354,-15684.0400,-15673.0205,-15736.3428,101147.8516,-15786.0303,-15727.7148,-15746.4014,34351.4766,-15743.6963,-15755.1631,-15851.3428,-15778.5205,78117.5313,8.359314
17949.1875,-13991.8340,-13853.7451,-14176.8389,69260.9688,-14416.3379,82771.0078,-14363.0967,-14049.5010,-14157.1025,-13829.0459,-14158.9805,101244.9922,-14430.1514,-14374.6074,-14392.3105,34609.1250,-14149.1904,-14192.5527,-14479.9063,-14424.1836,78279.9844,8.363312
6419.8901,5701.9072,5741.5820,4930.1465,69679.5078,125.4603,83260.0000,-1503.0653,4239.4106,3889.8516,5689.6587,4887.9019,101542.7422,176.4000,-493.6382,-835.2623,35033.6523,4175.1270,4382.8862,1233.4810,-1267.8579,78421.1797,8.367310
20197.4609,-16788.1035,-16824.8496,-16907.6855,68694.4609,-16889.1777,82391.5234,-16833.9258,-16796.5078,-16804.0625,-16810.8809,-16864.5020,101090.8828,-16904.6465,-16844.5879,-16863.7656,34163.1445,-16868.4141,-16880.2148,-16969.2207,-16896.2422,78012.0078,8.371307
18772.7383,-15376.3682,-15355.7822,-15523.3311,69044.1797,-15670.3604,82609.1641,-15615.8223,-15406.3193,-15464.2100,-15333.0723,-15494.3184,101197.4063,-15685.0898,-15626.9756,-15645.4160,34420.4336,-15490.9873,-15519.8887,-15747.0488,-15677.6025,78167.0859,8.375305
9724.6846,-1697.2126,-1372.0618,-2291.8584,69632.0313,-5880.8110,83132.5703,-6406.6577,-2447.7170,-2963.8860,-1346.1785,-2389.1108,101482.9063,-5880.4531,-6131.3740,-6275.2969,34949.8125,-2603.5757,-2666.4290,-5387.9771,-6402.8804,78406.6563,8.379303
5699.5605,5932.6445,5893.9985,5211.5547,69677.5156,214.5544,83253.1172,-1108.0206,4603.1851,4226.4243,5854.1006,5148.1431,101561.8047,268.6009,-387.3781,-686.6902,35022.3438,4557.0513,4697.3081,1270.0485,-958.3310,78415.1953,8.383301
11253.9463,-3565.6843,-3486.6931,-4209.9287,69211.3438,-7158.9951,82873.2031,-7386.5806,-4607.7227,-4813.3809,-3553.6589,-4193.2764,101360.2422,-7141.3823,-7269.9941,-7332.1768,34598.7344,-4652.8955,-4464.6265,-6924.5029,-7408.0830,78211.6094,8.387299
19324.1992,-15486.6064,-15517.1836,-15617.9678,68869.7891,-15649.1484,82501.8047,-15594.2979,-15514.4346,-15530.0361,-15505.3818,-15575.8125,101145.7500,-15663.5879,-15605.5625,-15623.8691,34250.6055,-15584.7979,-15594.1631,-15728.8105,-15656.1670,78078.1719,8.391296
10341.4590,-1603.0447,-1264.1476,-2226.9490,69598.2109,-6093.7783,83093.6797,-6643.0498,-2375.1187,-2905.8608,-1263.1194,-2330.8174,101462.8594,-6057.2329,-6602.4590,-6669.3579,34880.6563,-2526.8423,-2569.7576,-5543.0981,-6701.8574,78376.5938,8.395294
6738.9165,5303.1299,5267.8364,4382.3721,69513.8750,-789.3965,83125.2188,-3280.2749,3631.8677,3359.0425,5190.4551,4331.8350,101513.3047,-615.9694,-3058.2327,-3303.1853,34868.5859,3619.0603,3882.8108,513.1066,-3338.8140,78323.8828,8.399292
12148.0381,-5660.4897,-5668.2231,-6556.5933,68985.4375,-8473.1436,82701.3594,-8931.0420,-7050.4326,-7103.2949,-5755.9985,-6515.3545,101302.6406,-8422.1143,-8916.7588,-8958.2432,34426.3359,-7069.7896,-6804.3179,-8214.8916,-8990.6758,78096.3438,8.403290
19563.2305,-16434.6563,-16477.6387,-16549.6113,68698.2422,-16513.8477,82370.3750,-16458.5938,-16430.6328,-16436.7344,-16462.8867,-16506.9199,101116.1172,-16528.7129,-16469.4355,-16488.2324,34130.1719,-16501.3984,-16517.2461,-16593.4648,-16520.6426,77988.8984,8.407288
9177.0674,-395.4471,123.0016,-1163.5647,69691.0859,-4789.1294,83147.2578,-5353.9355,-1307.9122,-1974.5754,122.5546,-1319.5128,101511.8516,-4785.5532,-5096.1079,-5261.0864,34955.2656,-1499.4220,-1595.8474,-4031.8745,-5352.3262,78414.4063,8.411285
5805.2617,5965.0991,5885.9072,5209.3198,69684.5313,533.3796,83232.0625,-559.1736,4598.2900,4236.1694,5829.9160,5130.1499,101576.8281,595.9645,-32.5888,-291.4444,34972.0078,4552.6479,4700.9292,1612.7007,-462.2117,78396.8203,8.415283
11873.0000,-4156.1279,-4145.2651,-4782.2451,69131.1250,-7504.1958,82788.9609,-7711.4409,-5161.5093,-5296.7598,-4208.2744,-4773.1255,101349.5313,-7484.0566,-7608.9580,-7667.3633,34484.0469,-5194.1206,-5002.0298,-7282.7344,-7741.1689,78150.3906,8.419281
20100.7676,-16262.0557,-16300.4336,-16386.8008,68716.8125,-16400.7266,82366.4688,-16345.6289,-16279.4902,-16290.2637,-16287.2686,-16345.1816,101117.1406,-16415.7012,-16356.4473,-16375.2451,34098.2344,-16349.7861,-16359.6660,-16480.6563,-16407.7676,77986.7109,8.423279
19101.5098,-15381.6211,-15385.9121,-15522.5264,68990.0234,-15618.9961,82531.5781,-15564.4805,-15409.4707,-15459.9639,-15370.8252,-15491.9043,101203.1719,-15633.5918,-15575.4775,-15593.8506,34302.9961,-15488.5518,-15513.6973,-15698.7021,-15626.1484,78106.5781,8.427277
10410.9277,-2343.6250,-2104.4614,-2949.3125,69489.2031,-6717.0566,82995.5781,-7124.7749,-3152.8923,-3670.9163,-2139.2854,-3053.8965,101470.1641,-6664.9321,-7055.4175,-7151.0605,34766.4375,-3274.4409,-3307.2087,-6139.8896,-7183.4482,78305.1328,8.431274
11587.4121,-4782.8037,-4798.6733,-5548.3511,69038.9297,-7912.6514,82715.0000,-8444.4219,-6204.7769,-6333.9253,-4879.1846,-5526.3345,101352.1719,-7880.4648,-8348.1309,-8470.6631,34421.8203,-6200.1948,-5878.2852,-7692.1069,-8503.7656,78102.3359,8.435272
19105.0195,-15727.8496,-15770.0713,-15849.7109,68784.9453,-15830.4209,82406.0078,-15775.4580,-15740.4111,-15748.5918,-15756.0566,-15807.2422,101171.3438,-15844.8604,-15786.6338,-15805.0518,34141.5273,-15809.8799,-15822.2627,-15910.0830,-15837.3506,78008.1016,8.439270
17854.0371,-13891.0273,-13774.8652,-14084.8838,69146.7734,-14319.6670,82628.6094,-14266.6934,-13968.9902,-14063.8516,-13778.0176,-14067.5615,101266.5000,-14333.4131,-14278.3164,-14295.8398,34404.2070,-14059.1572,-14097.8262,-14382.6094,-14327.9375,78170.8906,8.443268
9599.4258,-404.8124,179.0151,-1141.6824,69645.0859,-4919.3281,83088.5391,-5547.5239,-1312.1367,-1942.2324,73.1796,-1284.6888,101518.4453,-4909.0015,-5196.7578,-5365.3574,34852.1367,-1473.0247,-1560.7552,-4181.3628,-5552.3296,78366.5313,8.447266
6496.6016,5542.0703,5492.4717,4682.6680,69553.1719,56.1923,83111.1328,-1642.2273,3891.6396,3610.7678,5365.2231,4638.7915,101558.5859,136.5468,-555.1503,-945.2552,34805.4219,3879.9050,4141.0850,1138.6426,-1513.0118,78301.6875,8.451263
12512.8857,-5496.0703,-5519.4053,-6312.9370,68959.9375,-8370.7725,82643.1172,-8742.9736,-6891.8472,-6945.4468,-5629.5996,-6258.5776,101323.8984,-8347.7949,-8494.1094,-8605.3994,34306.0156,-6909.7734,-6598.4805,-8183.4429,-8770.0869,78046.9688,8.455261
20323.5020,-16922.8398,-16966.3594,-17041.2148,68583.8438,-17013.2539,82249.6328,-16957.9766,-16927.1543,-16933.3457,-16953.1934,-16998.3223,101111.8672,-17028.7207,-16968.5273,-16987.6602,33951.6953,-16998.1211,-17010.8848,-17093.2051,-17020.1816,77901.3906,8.459259
18750.0723,-15354.6201,-15338.7949,-15502.9463,68941.4531,-15645.6396,82475.2109,-15591.1016,-15392.0361,-15448.3857,-15332.0000,-15472.9277,101227.1797,-15660.2803,-15602.1875,-15620.4717,34213.5000,-15472.1455,-15499.2803,-15722.3730,-15652.8145,78059.5078,8.463257
9705.2832,-1712.1659,-1426.0413,-2322.8379,69514.8203,-5850.7476,82988.7188,-6400.9580,-2537.1687,-3036.3950,-1510.4414,-2410.0991,101506.4844,-5839.0576,-6085.7539,-6274.9390,34723.7227,-2652.5037,-2695.5979,-5360.8647,-6427.1099,78294.0938,8.467255
5803.3843,5750.4556,5646.4976,5015.3066,69552.2578,124.6780,83101.7031,-1254.0669,4340.8203,4004.4043,5534.7837,4966.5352,101580.3359,200.1152,-448.0630,-822.8124,34778.2852,4333.8691,4507.4526,1162.8495,-1176.7522,78300.1016,8.471252
11466.0420,-4036.1885,-4071.3030,-4654.9517,69093.1719,-7391.4980,82725.0547,-7613.8530,-5087.6143,-5255.1631,-4160.8887,-4624.2183,101380.8906,-7369.7944,-7492.3716,-7558.0410,34354.6953,-5108.1558,-4900.5303,-7176.7651,-7645.2129,78098.6016,8.475250
19467.4746,-15654.4902,-15696.1094,-15778.4756,68758.6797,-15790.3896,82357.7500,-15735.4932,-15672.7520,-15684.9111,-15684.0625,-15735.5605,101167.5469,-15804.7842,-15746.6025,-15765.1094,34016.4258,-15742.3555,-15752.5479,-15870.1182,-15797.3408,77967.6406,8.479248
18545.9355,-14504.7842,-14497.3184,-14656.2617,69039.7344,-14788.2041,82525.1641,-14733.8672,-14545.3301,-14598.3936,-14487.0811,-14626.3330,101243.2500,-14802.1289,-14745.3340,-14763.3486,34221.0352,-14626.3994,-14651.7021,-14867.3740,-14795.4014,78093.4375,8.483246
10317.2744,-1632.7726,-1394.5699,-2262.7788,69487.1641,-6108.3740,82950.8516,-6615.6470,-2482.6975,-2945.7810,-1454.2715,-2355.9631,101487.2188,-6031.0591,-6604.3369,-6641.7314,34628.3945,-2606.2356,-2619.1104,-5514.9126,-6674.2305,78266.3281,8.487244
6839.9463,5048.8789,4798.4277,4081.6519,69395.2578,-1127.6455,82973.8281,-3378.5554,3295.7200,3091.2014,4743.6880,4041.5530,101528.8594,-798.4266,-3274.0388,-3401.3989,34603.3164,3321.3574,3592.8862,385.6346,-3436.8711,78209.8438,8.491241
12342.1855,-6154.8433,-6436.9224,-7050.0977,68874.9766,-8761.6602,82552.1406,-9122.3281,-7467.9634,-7482.1792,-6439.9175,-7003.6729,101318.4219,-8671.7832,-9120.2715,-9149.3955,34177.3594,-7475.2275,-7258.2148,-8448.9365,-9181.8057,77986.0859,8.495239
19682.7441,-16562.3516,-16613.2012,-16671.4063,68601.3438,-16629.9883,82228.2891,-16574.8906,-16548.2695,-16554.1484,-16594.8730,-16628.8926,101137.3516,-16645.1426,-16585.5293,-16604.4629,33906.5664,-16619.5059,-16637.2305,-16709.8945,-16637.0059,77884.6719,8.499237
17904.5742,-14330.6865,-14379.7256,-14534.9365,69019.5703,-14769.9873,82491.8125,-14718.7129,-14428.9668,-14515.4678,-14229.9473,-14519.7373,101262.2031,-14783.9131,-14729.6201,-14747.9268,34205.9023,-14512.0703,-14548.4375,-14825.7324,-14780.2246,78074.5078,8.503235
9167.5449,-372.2012,-642.6797,-1184.1730,69595.5313,-4790.6938,83004.4531,-5326.1968,-1423.2250,-2006.4043,58.5392,-1345.8431,101538.4766,-4770.6221,-5052.7012,-5236.4326,34683.0664,-1531.5862,-1610.7561,-4018.5530,-5330.2202,78312.8438,8.507233
5937.2935,5845.0259,4973.4644,5011.1045,69575.0781,414.8707,83078.6406,-648.6923,4283.8457,3978.7444,5737.0669,4921.1611,101595.7344,503.0036,-102.9074,-384.2265,34663.1055,4320.1001,4500.6577,1488.3579,-562.2358,78288.5703,8.511230
12128.4805,-4573.7925,-5374.9463,-5270.1611,69016.6875,-7781.4468,82633.4141,-7974.0293,-5760.0889,-5877.7261,-4570.3281,-5269.1328,101365.4063,-7755.7646,-7871.4795,-7932.1421,34184.2422,-5727.5000,-5498.8643,-7578.8281,-8005.0313,78042.7031,8.515228
20286.3535,-16462.4844,-16544.2246,-16586.5137,68608.1875,-16584.0098,82217.7344,-16528.8242,-16479.7617,-16488.7910,-16484.8574,-16545.2070,101135.5625,-16598.9629,-16539.4629,-16558.3945,33826.6367,-16548.2480,-16558.3730,-16663.7168,-16590.7383,77880.8281,8.519226
19116.7539,-15393.4443,-15490.0264,-15544.6992,68882.6875,-15631.7813,82387.6094,-15577.1094,-15439.3779,-15482.8516,-15372.9707,-15515.7090,101224.8750,-15646.2207,-15588.1504,-15606.4346,34036.9219,-15514.4121,-15539.2900,-15711.4873,-15638.7324,78005.1484,8.523224
10423.8027,-2333.1196,-3013.9314,-3046.6096,69367.4766,-6814.1304,82841.4609,-7135.3696,-3343.3066,-3804.8704,-2050.9065,-3173.2100,101486.1016,-6731.7866,-7137.3813,-7161.4985,34467.4609,-3408.8420,-3442.7051,-6177.0610,-7193.9756,78200.7031,8.527222
6523.3340,5289.1377,3880.7544,4281.0742,69351.9375,-1241.9076,82918.5078,-3390.6477,3341.6079,3113.7766,5220.3394,4188.1802,101552.4219,-963.3378,-3327.6606,-3412.3960,34490.8867,3457.1665,3722.6382,308.0517,-3448.7847,78185.0547,8.531219
11842.5801,-5228.2295,-6588.8916,-6205.1123,68904.8594,-8225.2627,82550.0000,-8698.5605,-6873.6978,-6903.4033,-5251.0283,-6202.0723,101362.6094,-8173.4517,-8696.6162,-8725.2041,34106.7266,-6800.7637,-6516.7852,-7998.9517,-8757.9053,77991.6016,8.535217
19280.4805,-15915.6934,-15996.6064,-16037.3086,68651.8828,-16004.3174,82242.3047,-15949.5342,-15921.5049,-15927.3604,-15940.7051,-15995.2432,101182.2734,-16018.9805,-15960.4189,-15979.0381,33850.5742,-15990.8174,-16006.4189,-16084.1582,-16011.3809,77899.3125,8.539215
17848.8281,-13880.5889,-14011.6826,-14085.3760,69021.6484,-14312.7158,82473.7734,-14259.6748,-13980.0322,-14058.3301,-13749.5186,-14066.5781,101286.1250,-14326.1494,-14271.1855,-14288.7100,34117.0977,-14056.4307,-14095.2109,-14378.3623,-14320.8066,78066.2109,8.543213
9593.2793,-364.3781,-1082.8749,-1181.9379,69516.7422,-4911.9521,82933.3047,-5595.5801,-1429.3269,-1949.8320,187.8217,-1322.6644,101540.6406,-4881.2856,-5184.7104,-5367.7266,34533.7773,-1495.1528,-1587.0632,-4223.2280,-5584.5830,78261.6328,8.547211
6618.7314,5387.7090,3997.5869,4387.6694,69414.2578,-65.6471,82948.3906,-2009.7123,3536.4258,3340.3115,5282.7451,4329.1079,101574.7266,56.0582,-690.3113,-1176.3052,34468.6250,3633.4548,3863.3647,992.8198,-1845.0693,78195.9219,8.551208
12739.5547,-5960.4946,-7225.2905,-6871.9541,68817.1328,-8618.7881,82478.6484,-9016.7832,-7403.2773,-7411.7710,-6023.5044,-6835.5430,101336.6797,-8585.1709,-8747.5117,-8885.0859,33986.8555,-7350.9297,-7113.9116,-8438.1631,-9047.5391,77940.4375,8.555206
20472.9902,-17083.0801,-17154.8066,-17197.2305,68452.9531,-17160.4180,82096.6797,-17105.0293,-17077.6484,-17083.3711,-17110.7070,-17155.0527,101133.0547,-17175.8848,-17115.5801,-17134.7793,33667.2461,-17148.8613,-17164.5293,-17240.3691,-17167.4141,77797.6797,8.559204
18709.8848,-15292.2588,-15400.7539,-15455.2695,68812.2578,-15602.5449,82324.5781,-15548.0293,-15351.8037,-15406.1631,-15263.4912,-15426.5254,101251.2344,-15617.1406,-15559.2275,-15577.4219,33934.8203,-15425.1396,-15454.1299,-15679.0996,-15609.7646,77957.8984,8.563202
9652.1758,-1543.9467,-2253.5251,-2261.4600,69377.6406,-5782.2622,82832.7891,-6352.9468,-2545.7520,-3007.4941,-1306.6830,-2357.2820,101529.1953,-5752.8022,-6008.8862,-6214.6118,34416.1406,-2588.2202,-2648.5476,-5295.9551,-6373.5103,78193.3516,8.567200
5910.1362,5701.0356,4503.2056,4836.6045,69409.8984,15.9591,82943.2734,-1413.7255,4044.8386,3793.0686,5538.1587,4787.1846,101601.3516,126.5109,-525.3777,-934.9958,34444.2813,4122.9355,4306.0410,1020.7594,-1313.9919,78192.3438,8.571198
11690.0518,-4343.8823,-5416.3193,-5105.8535,68943.4141,-7645.3916,82562.9375,-7867.2773,-5666.1221,-5741.2910,-4411.8989,-5071.3423,101398.4141,-7617.3403,-7732.1387,-7802.5244,34031.5586,-5627.5654,-5394.1465,-7458.5757,-7894.7925,77988.2734,8.575195
19596.7344,-15792.2217,-15885.9434,-15920.7451,68610.6250,-15916.2520,82198.8281,-15861.2891,-15815.4453,-15823.0010,-15818.4629,-15877.7402,101187.2188,-15930.7363,-15872.3535,-15890.9053,33726.5898,-15883.6855,-15894.9287,-15995.8467,-15923.1367,77861.8984,8.579193
18499.1973,-14428.8105,-14543.2959,-14596.4932,68910.7578,-14738.2705,82385.0859,-14684.1123,-14492.7363,-14548.0127,-14398.1660,-14565.4912,101279.6875,-14752.2852,-14695.4893,-14713.3486,33946.3320,-14565.2012,-14592.6709,-14817.4854,-14745.4902,77995.9844,8.583191
10272.9287,-1422.2191,-2177.6858,-2163.2688,69354.4219,-6122.9922,82810.9063,-6568.7749,-2445.2583,-2899.1106,-1177.2664,-2238.8623,101523.2500,-5999.8560,-6571.9937,-6594.8149,34332.8164,-2488.7102,-2517.4321,-5479.5298,-6627.2695,78165.4531,8.587189
6960.7578,4856.9224,3331.8179,3770.5381,69238.6172,-1589.0748,82818.8672,-3497.3550,3001.7498,2849.5566,4628.6885,3772.8403,101551.0156,-1038.9761,-3467.1355,-3520.9807,34286.7930,3089.7485,3318.4292,196.8742,-3555.4248,78100.6328,8.591187
12615.8604,-6723.8291,-7879.1016,-7618.3013,68702.0859,-9143.8076,82389.6250,-9394.2139,-7916.1157,-7907.7563,-6920.1895,-7542.1489,101335.0703,-9009.1162,-9402.8418,-9421.5059,33858.3086,-7909.7012,-7763.4756,-8778.4463,-9453.8037,77869.3594,8.595184
19888.0000,-16774.5586,-16831.1309,-16877.9590,68436.4141,-16833.5684,82077.7969,-16778.3145,-16751.9844,-16757.8184,-16804.0859,-16835.2441,101163.6094,-16848.6543,-16788.8633,-16807.9082,33604.0586,-16823.5762,-16842.0605,-16913.1406,-16840.3398,77770.2969,8.599182
17879.2051,-14285.6025,-14449.3066,-14506.0586,68861.3203,-14742.1592,82350.2578,-14691.4209,-14403.7764,-14480.8457,-14196.2402,-14480.5098,101292.2266,-14755.5928,-14702.1719,-14720.4111,33914.7031,-14481.6719,-14515.6475,-14797.6143,-14752.7988,77963.1484,8.603180
9082.7871,-246.7409,-1155.6522,-1142.2859,69430.2578,-4678.8013,82861.5781,-5222.1494,-1409.0986,-1917.6232,98.1242,-1226.9319,101561.6484,-4640.6021,-4943.7588,-5129.4346,34384.2031,-1479.9984,-1540.7504,-3937.9302,-5230.5317,78196.9063,8.607178
5992.7485,5740.8887,4342.5640,4807.3682,69401.1172,343.1663,82930.9609,-712.3277,4014.1272,3781.2668,5500.5630,4803.9263,101611.5391,453.1816,-160.2843,-449.6277,34352.8203,4072.8005,4301.2129,1355.0968,-639.3940,78167.3359,8.611176
12326.5176,-4934.6167,-6183.7886,-5721.3760,68833.3359,-8007.9370,82478.0000,-8194.1494,-6268.8818,-6314.5464,-5082.1606,-5641.1553,101375.0781,-7980.4219,-8090.6831,-8155.0562,33871.7656,-6240.2939,-5965.5464,-7837.1694,-8228.8613,77918.6484,8.615173
20406.8730,-16595.7227,-16686.2695,-16719.3730,68433.4844,-16702.9668,82068.5391,-16647.8477,-16609.6035,-16615.9277,-16627.0820,-16675.1387,101150.4922,-16718.0762,-16658.6426,-16677.4180,33527.8398,-16679.4961,-16690.4707,-16782.9414,-16710.1406,77760.3281,8.619171
19037.1582,-15286.6035,-15412.7119,-15450.0840,68724.2109,-15550.7119,82251.4922,-15496.1064,-15349.5684,-15397.5352,-15285.3516,-15414.2764,101247.3828,-15565.0615,-15507.3271,-15525.4092,33748.4063,-15420.1104,-15443.4678,-15630.5068,-15557.9092,77886.1484,8.623169
10303.2148,-2066.2175,-3030.4717,-2864.6890,69211.7500,-6641.6196,82710.4141,-7013.9546,-3195.6511,-3674.8726,-1973.0778,-2903.9163,101507.2266,-6529.9946,-7015.1172,-7040.1064,34177.5586,-3213.8679,-3223.5684,-6033.9873,-7072.7397,78082.9297,8.627167
6547.2729,5217.1650,3315.9258,4032.8804,69181.9063,-1196.9806,82778.5234,-3414.7876,3112.3237,2920.5459,4919.3506,4078.3215,101561.2734,-876.2778,-3345.9666,-3436.2676,34187.7969,3243.7522,3540.3374,224.9032,-3472.9692,78061.6563,8.631165
11996.5381,-5546.7192,-7256.3594,-6675.4824,68729.6641,-8398.6680,82407.2813,-8853.2803,-7235.0137,-7236.4663,-5794.4883,-6551.2515,101368.4219,-8347.4824,-8849.9717,-8879.8340,33802.7227,-7181.5483,-6910.8687,-8205.9961,-8912.8027,77867.3984,8.635162
19340.8750,-15986.1680,-16063.6172,-16105.3477,68481.2734,-16065.9189,82103.8125,-16010.9561,-15984.3350,-15990.2363,-16019.4727,-16061.3818,101189.8750,-16080.5596,-16021.9082,-16040.5723,33557.9453,-16054.8105,-16071.8867,-16145.8047,-16073.0498,77778.1484,8.639160
17706.6484,-13702.2227,-13878.6221,-13931.6406,68860.0859,-14170.9609,82344.8750,-14118.9932,-13827.5713,-13904.0586,-13609.8877,-13903.9473,101298.3281,-14183.9473,-14130.5264,-14148.0723,33836.1133,-13901.7119,-13935.8877,-14235.5352,-14180.3037,77949.0000,8.643158
9418.6670,-107.0648,-1082.1150,-1034.1034,69350.4844,-4663.7139,82803.1719,-5322.9336,-1287.9075,-1770.0122,236.0568,-1101.8069,101548.5781,-4607.5884,-4950.2632,-5134.8882,34247.2539,-1331.4711,-1382.1425,-4034.3779,-5279.0347,78141.9453,8.647156
6593.2505,5296.8267,3542.5950,4181.1841,69234.5938,-48.7492,82805.8359,-1757.0482,3347.3525,3192.1865,5040.9888,4224.5020,101572.4922,100.0017,-618.7856,-989.3105,34167.7930,3465.7720,3744.6099,912.2194,-1517.3035,78071.5313,8.651154
20521.3379,-17139.4297,-17208.0703,-17251.4551,68283.4375,-17211.2012,81955.5078,-17155.8125,-17129.0137,-17134.7344,-17170.5879,-17208.0254,101135.1797,-17226.5566,-17166.2070,-17185.3398,33373.6797,-17200.7617,-17216.9004,-17291.0625,-17218.0840,77675.1719,8.655151
18559.0547,-15130.8564,-15268.0518,-15299.2549,68649.8750,-15454.3311,82191.2969,-15400.1055,-15195.7881,-15245.6553,-15106.7832,-15264.0732,101258.3828,-15468.5020,-15411.1025,-15429.1631,33657.0078,-15265.5703,-15292.3477,-15529.9023,-15461.6172,77839.8828,8.659149
9484.9180,-1375.3922,-2330.3704,-2116.0842,69210.5625,-5575.2178,82698.4531,-6143.7344,-2396.7998,-2799.7124,-1183.7260,-2148.7178,101534.4531,-5521.7749,-5811.2520,-6000.1470,34134.4414,-2404.4666,-2438.1729,-5095.0576,-6151.8926,78072.5391,8.663147
5891.4502,5573.0273,3953.5540,4694.3804,69236.3125,32.0971,82802.2813,-1291.0814,3893.8750,3683.4780,5382.9258,4722.7446,101602.8203,175.7071,-500.7238,-852.8084,34153.3086,4037.7754,4249.8711,981.8004,-1183.8824,78070.8594,8.667145
11786.3877,-4650.8613,-6129.1162,-5390.5698,68768.4453,-7768.6616,82415.0391,-7963.2778,-5948.2686,-6005.2651,-4738.4805,-5290.5015,101396.2734,-7735.7148,-7849.1724,-7910.7290,33738.4141,-5832.6206,-5583.1528,-7604.6221,-7996.9844,77865.8516,8.671143
19634.8008,-15849.3086,-15946.8965,-15972.4893,68449.6016,-15959.1230,82057.3203,-15904.1152,-15863.9268,-15870.9229,-15877.0469,-15926.9805,101191.7266,-15973.4951,-15915.0898,-15933.5303,33444.3320,-15930.6689,-15941.8672,-16038.7617,-15966.1406,77740.8359,8.675140
18374.8320,-14302.9033,-14445.8428,-14470.7197,68756.2656,-14617.7500,82248.4453,-14563.5244,-14366.7393,-14417.1650,-14278.6064,-14432.5654,101287.8438,-14631.3848,-14574.9014,-14592.5371,33672.0313,-14434.8008,-14461.3545,-14696.2041,-14624.8350,77872.5547,8.679138
10131.6211,-1325.8607,-2341.5464,-2055.1086,69189.3984,-5896.2783,82667.8359,-6430.2837,-2334.5278,-2731.4277,-1128.4501,-2061.8813,101526.7813,-5743.5488,-6433.8154,-6456.0327,34053.9102,-2330.9292,-2349.4365,-5269.7363,-6488.6890,78040.9531,8.683136
6963.0151,4619.6362,2814.0398,3574.8931,69069.7500,-1443.5426,82671.9063,-3501.7583,2824.7017,2706.3267,4346.6987,3662.0203,101552.4844,-853.7025,-3473.7739,-3525.2275,33997.9414,2965.3835,3195.8298,185.9889,-3559.8057,77977.3672,8.687134
12733.8555,-7091.6270,-8258.7686,-7885.4492,68548.9766,-9256.6621,82249.4063,-9513.3711,-8141.1533,-8124.2554,-7314.4067,-7764.7051,101343.5000,-9111.8672,-9522.2227,-9540.6182,33568.9453,-8117.9521,-7983.3721,-8928.0020,-9572.9170,77749.4453,8.691132
12733.8555,-7091.6270,-8258.7686,-7885.4492,68548.9766,-9256.6621,82249.4063,-9513.3711,-8141.1533,-8124.2554,-7314.4067,-7764.7051,101343.5000,-9111.8672,-9522.2227,-9540.6182,33568.9453,-8117.9521,-7983.3721,-8928.0020,-9572.9170,77749.4453,8.695129
19917.3711,-16808.8242,-16860.9707,-16908.4238,68292.6016,-16863.4512,81938.1641,-16808.1992,-16782.0020,-16787.9258,-16838.3965,-16865.6875,101174.6953,-16878.6289,-16818.7266,-16837.7695,33322.7383,-16853.7285,-16872.3711,-16943.2695,-16870.4707,77652.5078,8.699127
19917.3711,-16808.8242,-16860.9707,-16908.4238,68292.6016,-16863.4512,81938.1641,-16808.1992,-16782.0020,-16787.9258,-16838.3965,-16865.6875,101174.6953,-16878.6289,-16818.7266,-16837.7695,33322.7383,-16853.7285,-16872.3711,-16943.2695,-16870.4707,77652.5078,8.703125
17730.4082,-14138.0811,-14305.3398,-14342.9355,68715.3594,-14592.1572,82208.5938,-14543.0498,-14243.5596,-14322.6846,-14066.5332,-14307.4854,101304.0938,-14604.9873,-14553.3545,-14571.8838,33638.8164,-14312.6934,-14349.5293,-14642.6045,-14604.2939,77843.8828,8.707123
17730.4082,-14138.0811,-14305.3398,-14342.9355,68715.3594,-14592.1572,82208.5938,-14543.0498,-14243.5596,-14322.6846,-14066.5332,-14307.4854,101304.0938,-14604.9873,-14553.3545,-14571.8838,33638.8164,-14312.6934,-14349.5293,-14642.6045,-14604.2939,77843.8828,8.711121
8933.4551,-199.8693,-1128.3607,-990.5622,69279.0703,-4471.9136,82718.7109,-5039.4019,-1271.0990,-1761.1385,67.3458,-1000.6429,101575.7813,-4420.1021,-4752.4053,-4937.8130,34096.5781,-1284.6888,-1355.6108,-3716.7598,-5058.9595,78072.5859,8.715118
8933.4551,-199.8693,-1128.3607,-990.5622,69279.0703,-4471.9136,82718.7109,-5039.4019,-1271.0990,-1761.1385,67.3458,-1000.6429,101575.7813,-4420.1021,-4752.4053,-4937.8130,34096.5781,-1284.6888,-1355.6108,-3716.7598,-5058.9595,78072.5859,8.719116
5966.1050,5528.2344,4068.2410,4713.8037,69243.9375,369.1390,82781.6016,-666.1714,3904.6709,3702.6111,5269.5576,4794.4492,101621.3750,494.3535,-136.7256,-407.9864,34049.0586,4049.1973,4267.4395,1334.9355,-621.0209,78041.2500,8.723114
12384.9219,-5230.6880,-6519.7803,-5874.4854,68681.8984,-8082.1001,82326.2109,-8255.5723,-6429.7471,-6462.9395,-5378.4775,-5727.9473,101382.5469,-8051.7017,-8162.4990,-8220.8818,33564.5391,-6303.1025,-6044.2246,-7931.7622,-8297.9727,77796.1406,8.727112
12384.9219,-5230.6880,-6519.7803,-5874.4854,68681.8984,-8082.1001,82326.2109,-8255.5723,-6429.7471,-6462.9395,-5378.4775,-5727.9473,101382.5469,-8051.7017,-8162.4990,-8220.8818,33564.5391,-6303.1025,-6044.2246,-7931.7622,-8297.9727,77796.1406,8.731110
20406.4492,-16607.9492,-16692.2598,-16722.9258,68307.6406,-16703.0332,81932.0156,-16647.9141,-16611.9277,-16617.8965,-16638.7949,-16676.5469,101171.7891,-16718.1875,-16658.5313,-16677.4844,33229.8008,-16679.6973,-16691.1641,-16783.0078,-16710.1406,77644.3281,8.735107
20406.4492,-16607.9492,-16692.2598,-16722.9258,68307.6406,-16703.0332,81932.0156,-16647.9141,-16611.9277,-16617.8965,-16638.7949,-16676.5469,101171.7891,-16718.1875,-16658.5313,-16677.4844,33229.8008,-16679.6973,-16691.1641,-16783.0078,-16710.1406,77644.3281,8.739105
18866.5039,-15123.8379,-15229.6064,-15273.9971,68606.3516,-15380.5479,82119.4766,-15326.1660,-15172.7217,-15216.8662,-15126.2295,-15232.0879,101274.4766,-15394.8525,-15337.2969,-15355.4023,33454.4375,-15238.9492,-15262.6426,-15460.1201,-15387.7451,77771.6875,8.743103
10117.0918,-2050.8396,-2785.4966,-2699.1294,69076.9219,-6368.4365,82562.7578,-6827.7871,-3017.7312,-3430.2551,-1986.1089,-2669.8040,101522.8047,-6245.9487,-6782.4355,-6853.6260,33867.4531,-2987.0200,-2997.6370,-5796.7236,-6886.4829,77961.7891,8.747101
10117.0918,-2050.8396,-2785.4966,-2699.1294,69076.9219,-6368.4365,82562.7578,-6827.7871,-3017.7312,-3430.2551,-1986.1089,-2669.8040,101522.8047,-6245.9487,-6782.4355,-6853.6260,33867.4531,-2987.0200,-2997.6370,-5796.7236,-6886.4829,77961.7891,8.751099
6503.7764,4854.5527,3255.5762,3886.6331,69047.7578,-1013.2269,82626.9531,-3370.8889,2970.5244,2826.1321,4505.1279,4034.4673,101574.9063,-702.5377,-3058.5232,-3391.8101,33858.6914,3163.2412,3453.9927,242.5835,-3429.2939,77937.3125,8.755096
12052.0381,-6003.3208,-7398.1587,-6886.3711,68611.7813,-8456.1338,82260.9688,-8909.4502,-7408.5747,-7394.6499,-6303.2363,-6681.9644,101387.9766,-8407.3623,-8862.6680,-8935.8027,33466.8867,-7325.3145,-7072.8965,-8292.7646,-8969.0615,77745.1563,8.759094
19302.8320,-15963.1680,-16027.5635,-16071.2832,68379.8828,-16029.6201,81962.9688,-15974.7021,-15948.4385,-15954.2725,-15995.9580,-16026.5576,101217.4375,-16044.1035,-15985.5645,-16004.1162,33228.8164,-16018.9131,-16036.6387,-16109.3936,-16036.7949,77661.3828,8.763092
19302.8320,-15963.1680,-16027.5635,-16071.2832,68379.8828,-16029.6201,81962.9688,-15974.7021,-15948.4385,-15954.2725,-15995.9580,-16026.5576,101217.4375,-16044.1035,-15985.5645,-16004.1162,33228.8164,-16018.9131,-16036.6387,-16109.3936,-16036.7949,77661.3828,8.767090
17487.5352,-13506.1309,-13561.4512,-13696.7236,68765.5625,-13953.4336,82207.9219,-13902.9854,-13594.1738,-13670.9072,-13451.8604,-13664.3135,101332.2578,-13965.7275,-13914.0947,-13931.8867,33509.5781,-13662.3242,-13701.9766,-14003.1211,-13964.1621,77834.6250,8.771088
9188.6006,-145.1969,-390.7532,-823.4159,69249.1016,-4388.4966,82663.4766,-4974.0454,-1083.9926,-1537.9564,30.9348,-853.6354,101580.2969,-4316.2109,-4664.6299,-4849.2329,33905.4922,-1078.0470,-1158.2897,-3578.8940,-4978.2695,78025.6875,8.775085
6503.7988,4909.2251,3929.1682,4071.9736,69125.6094,11.6453,82660.9688,-1327.2913,3235.2361,3111.9885,4480.3848,4163.1689,101597.0547,179.3504,-513.2407,-835.2176,33805.9180,3439.1958,3681.9805,995.5020,-1192.6891,77953.9219,8.779083
12870.2012,-6620.8994,-7535.1753,-7331.4390,68535.1641,-8795.7686,82186.0000,-9070.4268,-7778.0269,-7753.4175,-6966.7925,-7179.2461,101357.8047,-8756.6533,-8880.1240,-8959.4502,33310.5352,-7670.5820,-7448.7856,-8658.4844,-9088.6885,77695.3516,8.783081
20451.6660,-17083.0586,-17140.8145,-17186.4570,68200.8047,-17144.9941,81820.6797,-17089.5391,-17063.1426,-17068.7754,-17116.0273,-17142.9375,101171.3906,-17160.3730,-17100.0449,-17119.2012,33006.5078,-17134.6465,-17151.3418,-17224.9023,-17151.9453,77561.0000,8.787079
5716.0786,5262.8521,4927.5762,4644.0889,69134.0078,186.0112,82656.3438,-940.4049,3860.7944,3681.8909,4853.4575,4687.1157,101626.1172,347.4802,-327.2519,-607.6769,33742.7070,4108.3174,4251.9277,1125.8796,-824.8911,77948.3516,8.791077
9764.6055,-1187.9951,-931.3972,-1677.5878,69090.8750,-5300.4253,82526.5703,-6062.4634,-1963.1760,-2318.0769,-1153.1935,-1687.6237,101556.0156,-5216.9419,-5816.6836,-6067.0229,33615.7031,-1869.2540,-1946.4346,-4777.3721,-6120.7344,77920.2578,8.795074
12656.6299,-7372.5215,-7870.9878,-7862.8071,68461.6953,-9047.6953,82106.9141,-9434.5820,-8114.8677,-8087.6655,-7570.7368,-7739.4253,101380.2031,-8982.5625,-9359.2559,-9454.4746,33095.5352,-8039.8330,-7932.8799,-8870.0439,-9494.1045,77629.6641,8.799072
17346.8750,-13746.1436,-13978.9814,-13916.4414,68675.3750,-14195.7939,82075.7578,-14158.3994,-13820.1729,-13905.5566,-13130.0625,-13886.0430,101362.1172,-14206.0303,-14166.2891,-14186.5176,33173.9453,-13867.5361,-13922.4766,-14232.4502,-14219.1963,77730.7344,8.803070
5667.2622,5228.6987,5249.6646,4683.3833,69359.6250,597.2609,82640.9688,-428.8853,3919.7358,3746.7781,4743.5542,4735.3286,101699.0469,751.9797,69.2681,-190.5263,33547.0820,4204.4077,4299.2686,1541.6892,-362.2324,77923.7891,8.807068
12210.7803,-5356.1929,-4671.0898,-5773.2319,68851.6875,-7930.1753,82185.4141,-8088.0679,-6240.0928,-6258.6001,-6417.7666,-5662.9258,101464.4688,-7890.7021,-8004.3384,-8059.1670,33045.2656,-6005.9580,-5879.0449,-7761.9111,-8123.9873,77676.9844,8.811066
18420.9883,-14663.5713,-14381.3574,-14792.7188,68775.1719,-14934.6748,81988.3672,-14880.3604,-14694.6846,-14740.4385,-14793.3008,-14758.4990,101373.8750,-14948.5332,-14891.5811,-14909.5068,32938.1563,-14744.5732,-14779.2188,-15011.8555,-14941.7832,77658.0938,8.815063
9641.8271,-1740.7314,178.7245,-2152.7188,69247.2422,-5622.9390,82429.8594,-6346.8892,-2483.4128,-2843.7900,-2887.1301,-2194.8743,101619.1641,-5533.6660,-5991.3403,-6194.1152,33339.1680,-2301.0896,-2403.8406,-5125.2324,-6381.0649,77845.8047,8.819061
6199.2783,4599.6538,6203.3467,4005.4548,69255.8281,-396.3188,82511.6406,-3045.4922,3037.5125,2959.7061,2554.9160,4037.8201,101678.3281,-198.9082,-1217.2089,-2082.6907,33326.5391,3474.0869,3644.9211,565.2980,-3002.8450,77817.4609,8.823059
11863.7021,-6076.8135,-4580.8110,-6614.3726,68836.9766,-8250.2744,82155.4688,-8717.5596,-7213.4888,-7157.2295,-7550.3521,-6512.8511,101491.9609,-8215.5625,-8348.2646,-8553.2305,32936.7461,-6935.8130,-6751.7241,-8119.5615,-8764.6104,77629.3516,8.827057
19027.8164,-15691.3936,-15672.7295,-15792.8701,68600.9219,-15752.9502,81860.2656,-15698.1660,-15671.7012,-15677.2227,-15732.7217,-15749.3516,101323.5625,-15767.2773,-15709.2529,-15727.6035,32705.5859,-15740.3213,-15758.0020,-15832.5000,-15760.0576,77549.2188,8.831055
17018.5957,-12998.5000,-11898.7500,-13152.9502,69005.8438,-13467.0820,82117.7813,-13431.7441,-13064.3037,-13157.2197,-13249.9795,-13141.4619,101445.0000,-13476.3135,-13440.2598,-13459.8174,32992.6953,-13082.8330,-13155.5430,-13501.5488,-13492.6523,77723.5859,8.835052
8718.1855,172.2202,3738.2844,-254.0276,69486.9688,-3597.4460,82571.3203,-4394.3750,-579.9160,-1054.0188,-1415.7147,-386.3052,101688.2266,-3507.7485,-4053.2429,-4267.1938,33376.7188,-312.6115,-538.5429,-2858.9893,-4398.9570,77911.3359,8.839050
6248.7427,4617.1104,7023.0298,4101.6343,69353.1719,313.4832,82559.5156,-805.7580,3213.4209,3106.8477,2319.9546,4080.7578,101691.9609,467.2185,-239.4766,-512.2349,33251.1914,3687.1882,3790.6992,1182.6084,-730.8796,77836.9531,8.843048
12783.3643,-6805.5249,-4736.2002,-7229.5820,68764.7578,-8709.6924,82085.8594,-8883.7227,-7712.2905,-7676.1250,-8200.0947,-7172.5850,101454.6328,-8675.8291,-8781.6426,-8839.5332,32740.3652,-7417.4038,-7287.7188,-8585.7744,-8919.2178,77577.1563,8.847046
20309.9570,-16941.7500,-16905.2051,-17040.1641,68441.5313,-16999.0820,81727.1172,-16943.9180,-16917.3867,-16922.9297,-16978.3613,-16997.7402,101271.8594,-17014.4609,-16954.3789,-16973.4453,32439.2871,-16987.5938,-17004.3340,-17078.9004,-17006.1445,77445.6406,8.851044
20309.9570,-16941.7500,-16905.2051,-17040.1641,68441.5313,-16999.0820,81727.1172,-16943.9180,-16917.3867,-16922.9297,-16978.3613,-16997.7402,101271.8594,-17014.4609,-16954.3789,-16973.4453,32439.2871,-16987.5938,-17004.3340,-17078.9004,-17006.1445,77445.6406,8.855042
17965.2148,-14530.1309,-13537.5127,-14655.3896,68814.8516,-14855.0137,81966.2813,-14804.6104,-14563.1221,-14614.9111,-14712.9678,-14632.9941,101393.4063,-14868.2900,-14815.4287,-14833.6680,32726.0371,-14598.7285,-14643.9912,-14918.3135,-14866.0557,77612.9453,8.859039
8844.4287,-1107.1489,2957.2698,-1456.6631,69364.3672,-4708.4844,82469.0156,-5275.4360,-1810.0219,-2168.3203,-2670.4968,-1578.2789,101661.0469,-4650.2578,-5008.1763,-5175.1665,33178.5273,-1545.7125,-1709.4838,-4121.6392,-5281.4043,77840.2578,8.863037
5561.5830,5012.1548,7801.8760,4587.7622,69379.6563,376.8280,82564.1875,-682.3317,3718.8608,3571.6746,2450.3323,4512.9961,101717.9766,519.9239,-156.9316,-418.2235,33150.9883,4199.0654,4228.7485,1264.0134,-611.4096,77830.3125,8.867035
11679.5684,-5136.1401,-2252.0723,-5482.9497,68907.7656,-7684.6636,82166.9531,-7856.1016,-6058.2612,-6066.0176,-7090.8447,-5479.4854,101503.2031,-7649.3477,-7767.2085,-7823.2666,32707.3281,-5665.2505,-5602.7104,-7542.1714,-7894.0547,77622.6875,8.871033
19376.2578,-15614.5703,-15425.8994,-15718.0146,68612.9453,-15699.1943,81824.5938,-15644.2979,-15608.0889,-15613.8330,-15678.8096,-15676.2832,101311.4922,-15713.3652,-15655.4746,-15673.7578,32420.5332,-15667.5889,-15684.7100,-15778.7891,-15706.2793,77508.0938,8.875031
17756.9629,-13674.3271,-12405.8438,-13796.6807,68933.8750,-13998.2266,82029.4219,-13944.8057,-13706.4023,-13760.1133,-13874.5986,-13776.3408,101414.3125,-14011.0117,-13956.5186,-13973.7510,32653.5059,-13734.2305,-13780.6768,-14070.9814,-14006.0273,77642.7344,8.879028
9498.9551,-1039.1549,3656.7004,-1353.4427,69350.4453,-4900.7539,82438.5313,-5793.0356,-1724.1465,-2081.2378,-2745.4424,-1496.6057,101640.0625,-4806.6084,-5268.4399,-5654.1416,33011.0430,-1399.1298,-1559.2129,-4366.9048,-5837.8286,77804.7891,8.883026
6666.0947,3918.4395,7354.2378,3479.3843,69218.9453,-458.9707,82428.4922,-3193.5725,2612.4717,2535.1572,1654.6772,3383.6294,101653.2969,-242.9411,-1543.3431,-2657.6448,32909.0078,3126.6514,3200.8145,452.3546,-3203.2283,77731.2500,8.887024
12675.0029,-7614.3672,-4701.4883,-7934.5112,68703.7422,-9039.5820,82006.0469,-9452.4180,-8241.6689,-8215.5176,-8603.1865,-7927.5151,101444.5547,-8992.5986,-9266.7871,-9427.2949,32457.8828,-8050.1816,-7982.5229,-8915.8867,-9507.7832,77505.6328,8.891022
19702.5918,-16599.5215,-16552.0703,-16693.8906,68465.2031,-16648.7402,81705.7734,-16593.5996,-16567.6035,-16573.3047,-16628.1777,-16651.6465,101283.7734,-16663.8066,-16604.2617,-16623.1484,32220.4629,-16639.2871,-16657.7266,-16728.5820,-16655.9824,77418.5938,8.895020
17147.3184,-13565.1172,-12087.2422,-13701.4180,68901.6641,-13989.0850,81990.8906,-13959.3125,-13626.0479,-13706.5361,-13802.9170,-13702.5352,101420.6094,-13998.8750,-13963.8721,-13986.4697,32552.9453,-13630.0488,-13705.1504,-14029.0273,-14019.9297,77615.6250,8.899017
8325.5332,-56.1699,4588.0083,-408.6569,69455.2969,-3538.2139,82497.2266,-4314.8701,-825.0699,-1272.3730,-1669.8988,-632.6885,101684.6563,-3457.5466,-3950.6931,-4190.8403,33006.3945,-454.0086,-717.9156,-2909.0125,-4300.7212,77839.5469,8.903015
5693.7490,4921.3174,8096.5166,4527.8823,69401.0703,629.4921,82541.1250,-422.1350,3595.3674,3422.5662,2484.3516,4375.3540,101712.0156,778.5559,103.9356,-169.4039,32930.3984,4172.0425,4169.8521,1439.9888,-340.3276,77800.9219,8.907013
12377.0547,-5821.1094,-2707.6680,-6125.6294,68843.9531,-8105.1221,82083.4297,-8271.1289,-6716.0283,-6739.0952,-7554.6436,-6180.7935,101472.5156,-8067.6831,-8182.6157,-8239.6797,32422.6348,-6255.8062,-6213.4272,-7976.5552,-8306.2881,77554.6484,8.911011
20289.2813,-16514.0488,-16338.1416,-16614.3184,68489.4531,-16587.2734,81701.7031,-16532.2656,-16500.8164,-16506.6953,-16566.5313,-16574.1973,101271.9297,-16602.1816,-16542.8379,-16561.5469,32085.6152,-16562.6641,-16579.6973,-16666.8457,-16594.1797,77408.0703,8.915009
18421.2559,-14676.9375,-13647.0586,-14794.8203,68790.5313,-14934.9209,81894.9141,-14880.8076,-14713.7510,-14760.4434,-14859.0596,-14778.2129,101375.1719,-14948.8457,-14892.0283,-14909.7529,32320.5762,-14738.8965,-14782.2363,-15012.4141,-14942.1855,77538.2188,8.919006
9661.8096,-1866.7283,2793.5879,-2177.4397,69249.2344,-5612.8135,82335.4609,-6370.9624,-2666.8088,-3057.2715,-3692.3069,-2385.3110,101618.6719,-5514.2197,-6049.5889,-6305.2256,32735.5586,-2249.3455,-2430.7075,-5152.1216,-6429.6577,77724.5234,8.923004
6352.4551,4193.9917,7737.5703,3738.5081,69210.3672,-510.9385,82393.1953,-3217.4888,2633.6611,2528.8762,1720.1008,3526.0100,101666.0547,-290.8409,-1594.3275,-2812.3411,32712.4473,3311.1650,3372.8557,381.8572,-3276.2515,77695.5078,8.927002
6352.4551,4193.9917,7737.5703,3738.5081,69210.3672,-510.9385,82393.1953,-3217.4888,2633.6611,2528.8762,1720.1008,3526.0100,101666.0547,-290.8409,-1594.3275,-2812.3411,32712.4473,3311.1650,3372.8557,381.8572,-3276.2515,77695.5078,8.931000
12121.1494,-6729.0146,-3432.6021,-7117.8906,68768.1094,-8529.6934,82018.5625,-8976.4375,-7694.0513,-7669.1289,-8057.8037,-7210.0913,101472.2031,-8490.0635,-8693.3086,-8937.2549,32309.1543,-7334.2998,-7247.4189,-8417.0859,-9036.1846,77505.2969,8.934998
19247.9590,-15918.3750,-15797.0059,-16014.8232,68549.0234,-15971.7510,81729.5781,-15916.8105,-15890.6816,-15896.5381,-15951.2100,-15973.3604,101304.6328,-15986.1230,-15927.7627,-15946.1807,32077.0547,-15960.7324,-15979.1719,-16051.1670,-15978.7471,77425.7891,8.938995
17100.8496,-13130.3975,-11460.2080,-13260.6855,68955.6016,-13552.3535,81995.6719,-13511.6514,-13191.5078,-13269.4922,-13350.5625,-13267.9277,101429.4609,-13561.8535,-13520.0332,-13539.4795,32381.7754,-13194.5029,-13263.1221,-13593.6602,-13572.2695,77601.4531,8.942993
8791.7227,-88.2000,4888.6392,-405.9747,69424.8750,-3736.0046,82443.1328,-4441.7832,-868.9464,-1301.1396,-1586.7056,-676.5873,101667.1484,-3632.9407,-4088.6926,-4301.1685,32788.0391,-474.1699,-705.1304,-3034.9868,-4430.5400,77787.0625,8.946991
6445.9971,4243.3892,7721.0967,3814.9509,69280.9922,131.8529,82423.1719,-1054.1753,2782.0322,2667.5464,2079.4722,3584.0798,101671.3750,308.2082,-374.5035,-670.0382,32672.5273,3391.0054,3461.7263,945.5011,-944.2718,77710.6406,8.950989
13094.6123,-7427.3501,-4471.8462,-7766.4038,68694.6406,-9038.2852,81947.3672,-9246.6035,-8250.9229,-8233.7119,-8576.2744,-7861.5776,101435.0703,-9000.9580,-9104.7373,-9171.7471,32155.5313,-7948.2129,-7857.6885,-8939.4453,-9274.2744,77451.7656,8.954987
20571.7402,-17207.4004,-17138.6250,-17302.8203,68369.8906,-17259.5469,81586.8594,-17204.3613,-17178.1875,-17183.8203,-17238.6934,-17261.5586,101246.9609,-17275.0820,-17214.7090,-17233.9551,31847.1211,-17250.1816,-17267.3711,-17339.4766,-17266.6328,77320.5859,8.959961
18082.7402,-14663.8613,-13455.4814,-14780.8057,68746.4063,-14973.2988,81832.2813,-14921.8232,-14703.8262,-14755.1240,-14826.6719,-14774.1445,101369.4688,-14986.2627,-14932.7979,-14950.8574,32146.2773,-14729.3740,-14774.2344,-15043.1709,-14983.1787,77488.8906,8.963959
8976.9072,-1280.7325,3484.1228,-1570.4111,69298.7656,-4841.9243,82339.8672,-5484.9390,-2059.5120,-2426.6619,-2660.7964,-1834.6758,101643.0156,-4762.3071,-5134.7769,-5325.3027,32615.6875,-1695.8268,-1867.1306,-4381.6572,-5484.6934,77716.3906,8.967957
5789.0571,4757.4790,8112.9902,4403.4722,69302.8984,207.7371,82425.6094,-976.1901,3291.9202,3143.2363,2471.4771,4134.1563,101696.6094,381.9466,-320.5911,-618.7633,32600.5313,3974.7659,3999.7104,1001.7158,-886.5819,77706.5781,8.971954
11981.2051,-5707.4956,-2296.6641,-5985.4839,68825.3516,-8004.5171,82021.0859,-8171.7305,-6738.5591,-6754.9873,-7372.6558,-6138.0571,101475.7734,-7964.2617,-8079.6636,-8137.4204,32166.4160,-6188.5049,-6131.6870,-7885.5835,-8209.4375,77500.5547,8.975952
19637.4375,-15892.1123,-15681.0674,-15991.1748,68539.8594,-15962.6543,81685.4766,-15907.8252,-15878.4775,-15884.4678,-15942.0908,-15953.3115,101285.6719,-15977.0488,-15918.7109,-15937.1504,31888.1816,-15940.4141,-15957.8936,-16042.1143,-15969.5605,77385.3984,8.979950
17894.2695,-13833.8965,-12471.3564,-13950.2822,68862.9297,-14137.9697,81895.3125,-14084.3701,-13875.8730,-13928.4443,-14000.2607,-13946.5713,101389.1172,-14151.0234,-14095.8809,-14113.2490,32132.5098,-13897.4424,-13941.9443,-14213.4512,-14145.3906,77521.9063,8.983948
9640.7539,-1230.5752,3805.9656,-1502.9313,69267.5156,-5074.7847,82298.0234,-5939.6182,-2018.4519,-2391.5471,-2637.2151,-1796.2085,101611.5625,-4967.2505,-5697.8169,-5952.6494,32493.7578,-1616.5228,-1772.8733,-4609.6001,-5998.0010,77684.5391,8.987946
6919.3848,3542.8184,7380.5234,3202.7813,69136.3594,-821.9183,82290.4063,-3457.1665,2240.8965,2160.1396,1707.0920,2928.9949,101631.3906,-506.0211,-2665.2219,-3437.4077,32399.6797,2792.3586,2858.6091,119.1348,-3515.6165,77614.6172,8.991943
12992.9795,-8189.5449,-5084.6191,-8410.0225,68620.2969,-9431.8096,81864.1563,-9771.0645,-8683.2051,-8662.0605,-8897.9160,-8476.4297,101418.9375,-9351.2100,-9712.7041,-9794.7354,31955.5273,-8527.9951,-8484.0293,-9288.0879,-9830.8779,77386.2266,8.995941
19952.1055,-16848.9902,-16815.5293,-16942.6445,68379.5703,-16897.5820,81561.5781,-16842.4629,-16816.1563,-16821.9668,-16876.7949,-16900.5781,101249.9531,-16912.8262,-16852.8789,-16872.1016,31732.7695,-16888.5313,-16906.4570,-16977.4004,-16904.6465,77300.0391,8.999939
17300.1152,-13750.9717,-12249.6719,-13874.8896,68821.1094,-14149.9053,81854.4531,-14112.1982,-13818.5186,-13883.8301,-13936.5801,-13892.7490,101388.5391,-14159.3828,-14119.3506,-14139.8467,32073.3438,-13830.4316,-13890.4014,-14191.9043,-14173.0391,77497.5625,9.003937
8506.3584,-289.3880,4509.3076,-581.6371,69372.0547,-3789.7380,82361.7734,-4513.1299,-1137.5697,-1528.6581,-1572.9816,-935.8452,101654.5234,-3686.9424,-4169.6953,-4378.2817,32516.5566,-766.1507,-971.9879,-3133.9604,-4513.0630,77719.2734,9.007935
5939.3276,4725.0244,8017.7271,4380.1147,69308.1719,431.6122,82398.3359,-624.6865,3193.3489,3039.8594,2619.1997,4051.6782,101678.9531,597.3057,-86.3895,-357.2703,32435.5313,3878.1616,3928.6990,1212.8727,-555.3067,77679.8438,9.011932
12675.3389,-6293.4912,-3166.0127,-6562.8521,68747.9063,-8419.9238,81936.7109,-8576.7441,-7337.7197,-7349.6333,-7782.4526,-6757.8262,101435.2969,-8383.5801,-8489.3486,-8546.9043,31938.4512,-6819.3828,-6732.4346,-8317.6201,-8614.8535,77435.0703,9.015930
20524.2207,-16755.0684,-16606.8086,-16853.1035,68400.2656,-16819.7773,81561.2422,-16764.7246,-16737.2324,-16742.9531,-16799.0117,-16815.2617,101233.3516,-16834.9531,-16775.1406,-16794.2070,31622.9336,-16803.7500,-16820.0000,-16899.7520,-16826.9063,77291.6328,9.019928
18532.0313,-14796.8096,-13859.3105,-14912.1670,68703.0938,-15043.1260,81758.7656,-14988.9453,-14850.1182,-14895.4033,-14956.7139,-14911.6309,101333.5938,-15057.2070,-15000.1885,-15018.1143,31868.1992,-14872.1348,-14910.1104,-15122.0947,-15050.4570,77423.7109,9.023926
9803.2734,-2016.9990,2478.3389,-2302.3191,69150.4844,-5919.7925,82192.7891,-6509.7441,-2998.3523,-3425.8293,-3575.4297,-2678.5435,101571.2656,-5746.1191,-6395.8618,-6535.5381,32264.8320,-2514.9065,-2661.0198,-5375.5049,-6568.5068,77604.6953,9.027924
6599.7100,3856.9946,7559.6504,3466.4648,69103.9453,-980.4816,82245.1641,-3462.7097,2248.3171,2126.1648,1802.5787,3050.7671,101615.6797,-626.9217,-2877.8765,-3483.3403,32228.5996,2875.5071,2975.6877,57.6675,-3520.9807,77571.4844,9.031921
12409.3076,-7326.4321,-3987.4841,-7634.5508,68655.1484,-8857.2363,81864.3594,-9261.8916,-8131.3408,-8117.0806,-8319.9004,-7827.8936,101414.3516,-8808.5537,-9178.7656,-9288.5352,31831.3418,-7913.7690,-7828.9663,-8754.9990,-9321.4814,77380.5078,9.035919
19462.4004,-16133.9805,-16046.4736,-16228.6846,68437.2578,-16183.6904,81576.6016,-16128.7275,-16102.5537,-16108.4326,-16163.0156,-16186.7529,101239.9688,-16198.2188,-16139.4121,-16158.1201,31614.1719,-16174.0566,-16192.7207,-16263.1738,-16190.5527,77304.0156,9.039917
